#Wavelength	Transmission
2.1938720000	0.0778686900
2.1939850000	0.0777009900
2.1940990000	0.0775332900
2.1942130000	0.0773655900
2.1943260000	0.0771978900
2.1944400000	0.0770301900
2.1945540000	0.0768624900
2.1946680000	0.0766947900
2.1947810000	0.0765270900
2.1948950000	0.0763593900
2.1950090000	0.0761916900
2.1951220000	0.0760239900
2.1952360000	0.0758562900
2.1953500000	0.0756885900
2.1954640000	0.0755208900
2.1955770000	0.0753531900
2.1956910000	0.0751854900
2.1958050000	0.0750177900
2.1959180000	0.0748500900
2.1960320000	0.0746823900
2.1961460000	0.0745146900
2.1962590000	0.0743469900
2.1963730000	0.0741792900
2.1964870000	0.0740115900
2.1966010000	0.0738438900
2.1967140000	0.0736761900
2.1968280000	0.0735084900
2.1969420000	0.0733407900
2.1970550000	0.0731730900
2.1971690000	0.0730053900
2.1972830000	0.0728376900
2.1973960000	0.0726699900
2.1975100000	0.0725022900
2.1976240000	0.0723345900
2.1977380000	0.0721668900
2.1978510000	0.0719991900
2.1979650000	0.0718314900
2.1980790000	0.0716637900
2.1981920000	0.0714960900
2.1983060000	0.0713283900
2.1983060000	0.1696565000
2.1984200000	0.1694888000
2.1985330000	0.0709929900
2.1986470000	0.0708252900
2.1987610000	0.0706575900
2.1988750000	0.0704898900
2.1989880000	0.0703221900
2.1991020000	0.0701544900
2.1992160000	0.0699867900
2.1993290000	0.0698190900
2.1994430000	0.0696513900
2.1995570000	0.0694836900
2.1996700000	0.0693159900
2.1997840000	0.0691482900
2.1998980000	0.0689805900
2.2000120000	0.0688128900
2.2001250000	0.0686451900
2.2002390000	0.0684774900
2.2003530000	0.0683097900
2.2004660000	0.0681420900
2.2005800000	0.0679743900
2.2006940000	0.0678066900
2.2008070000	0.0676389900
2.2009210000	0.0674712900
2.2010350000	0.0673035900
2.2011490000	0.0671358900
2.2012620000	0.0669681900
2.2013760000	0.0668004900
2.2014900000	0.0666327900
2.2016030000	0.0664650900
2.2017170000	0.0662973900
2.2018310000	0.0661296900
2.2019440000	0.0659619900
2.2020580000	0.0657942900
2.2021720000	0.0656265900
2.2022860000	0.0654588900
2.2023990000	0.0652911900
2.2025130000	0.0651234900
2.2026270000	0.0649557900
2.2027400000	0.0647880900
2.2028540000	0.0646203900
2.2029680000	0.0644526900
2.2030810000	0.0642849900
2.2031950000	0.0641172900
2.2033090000	0.0639495900
2.2034230000	0.0637818900
2.2035360000	0.0636141900
2.2036500000	0.0634464900
2.2037640000	0.0632787900
2.2038770000	0.0631110900
2.2039910000	0.0629433900
2.2041050000	0.0627756900
2.2042180000	0.0626079900
2.2043320000	0.0624402900
2.2044460000	0.0622725900
2.2045600000	0.0621048900
2.2046730000	0.0619371900
2.2047870000	0.0617694900
2.2049010000	0.0616017900
2.2050140000	0.0614340900
2.2051280000	0.0612663900
2.2052420000	0.0610986900
2.2053550000	0.0609309900
2.2054690000	0.0607632900
2.2055830000	0.0605955900
2.2056970000	0.0604278900
2.2058100000	0.0602601900
2.2059240000	0.0600924900
2.2060380000	0.0599247900
2.2061510000	0.0597570900
2.2062650000	0.0595893900
2.2063790000	0.0594216900
2.2064920000	0.0592539900
2.2066060000	0.0590862900
2.2067200000	0.0589185900
2.2068340000	0.0587508900
2.2069470000	0.0585831900
2.2070610000	0.0584154900
2.2071750000	0.0582477900
2.2072880000	0.0580800900
2.2074020000	0.0579123900
2.2075160000	0.0577446900
2.2076290000	0.0575769900
2.2077430000	0.0574092900
2.2078570000	0.0572415900
2.2079710000	0.0570738900
2.2080840000	0.0569061900
2.2081980000	0.0567384900
2.2083120000	0.0565707900
2.2084250000	0.0564030900
2.2085390000	0.0562353900
2.2086530000	0.0560676900
2.2087660000	0.0558999900
2.2087670000	0.1542281000
2.2088800000	0.1540604000
2.2089940000	0.1538927000
2.2091080000	0.1537250000
2.2092210000	0.1535573000
2.2093350000	0.0550614900
2.2093350000	0.1533896000
2.2094490000	0.1532219000
2.2095630000	0.1530542000
2.2096760000	0.1528865000
2.2097900000	0.0543906900
2.2099030000	0.0542229900
2.2100170000	0.0540552900
2.2101310000	0.0538875900
2.2102450000	0.0537198900
2.2103580000	0.0535521900
2.2104720000	0.0533844900
2.2105860000	0.0532167900
2.2106990000	0.0530490900
2.2107000000	0.1513772000
2.2108130000	0.1512095000
2.2109270000	0.1510418000
2.2110410000	0.1508741000
2.2111540000	0.0523782900
2.2112680000	0.0522105900
2.2113820000	0.0520428900
2.2114950000	0.0518751900
2.2116090000	0.0517074900
2.2116090000	0.1500356000
2.2117230000	0.1498679000
2.2118370000	0.1497002000
2.2119500000	0.0512043900
2.2120640000	0.0510366900
2.2120640000	0.1493648000
2.2121780000	0.1491971000
2.2122910000	0.1490294000
2.2124050000	0.0505335900
2.2125190000	0.0503658900
2.2126320000	0.0501981900
2.2127460000	0.0500304900
2.2127460000	0.1483586000
2.2128600000	0.1481909000
2.2129740000	0.1480232000
2.2130870000	0.1478555000
2.2132010000	0.1476878000
2.2133150000	0.1475201000
2.2134280000	0.1473524000
2.2135420000	0.0488565900
2.2135420000	0.1471847000
2.2136560000	0.1470170000
2.2137700000	0.1468493000
2.2138830000	0.1466816000
2.2139970000	0.1465139000
2.2141110000	0.1463462000
2.2142240000	0.1461785000
2.2143380000	0.1460108000
2.2144520000	0.1458431000
2.2145650000	0.1456754000
2.2146790000	0.1455077000
2.2147930000	0.0470118900
2.2149060000	0.0468441900
2.2150200000	0.0466764900
2.2151340000	0.0465087900
2.2151340000	0.1448369000
2.2152480000	0.1446692000
2.2153610000	0.1445015000
2.2154750000	0.1443338000
2.2155890000	0.1441661000
2.2157020000	0.1439984000
2.2158160000	0.0455025900
2.2159300000	0.0453348900
2.2159300000	0.1436630000
2.2160440000	0.1434953000
2.2161570000	0.1433276000
2.2162710000	0.1431599000
2.2163840000	0.0446640900
2.2164980000	0.0444963900
2.2166120000	0.0443286900
2.2167260000	0.0441609900
2.2168390000	0.0439932900
2.2169530000	0.0438255900
2.2170670000	0.0436578900
2.2171800000	0.0434901900
2.2172940000	0.0433224900
2.2174080000	0.0431547900
2.2174080000	0.1414829000
2.2175220000	0.1413152000
2.2176350000	0.1411475000
2.2177490000	0.1409798000
2.2178630000	0.1408121000
2.2179760000	0.1406444000
2.2180900000	0.1404767000
2.2182040000	0.1403090000
2.2183180000	0.1401413000
2.2184310000	0.1399736000
2.2185450000	0.0414777900
2.2185450000	0.1398059000
2.2186590000	0.1396382000
2.2187720000	0.0411423900
2.2187720000	0.1394705000
2.2188860000	0.1393028000
2.2190000000	0.1391351000
2.2191130000	0.1389674000
2.2192270000	0.1387997000
2.2193410000	0.1386320000
2.2194550000	0.1384643000
2.2195680000	0.1382966000
2.2196820000	0.1381289000
2.2197960000	0.1379612000
2.2199090000	0.1377935000
2.2200230000	0.1376258000
2.2201370000	0.1374581000
2.2202500000	0.1372904000
2.2203640000	0.1371227000
2.2204780000	0.1369550000
2.2205920000	0.1367873000
2.2207050000	0.1366196000
2.2208190000	0.0381238000
2.2208190000	0.1364519000
2.2209330000	0.1362842000
2.2210460000	0.1361165000
2.2211600000	0.1359488000
2.2212740000	0.1357811000
2.2213870000	0.1356134000
2.2215010000	0.1354457000
2.2216150000	0.1352780000
2.2217280000	0.0367822000
2.2218420000	0.0366145000
2.2219560000	0.0364468000
2.2220690000	0.0362791000
2.2220700000	0.1346072000
2.2221830000	0.1344395000
2.2222970000	0.1342718000
2.2224110000	0.1341041000
2.2225240000	0.1339364000
2.2226380000	0.0354406000
2.2227520000	0.0352729000
2.2228650000	0.0351052000
2.2229790000	0.0349375000
2.2230930000	0.0347698000
2.2232060000	0.0346021000
2.2233200000	0.0344344000
2.2234340000	0.0342667000
2.2235480000	0.0340990000
2.2236610000	0.0339313000
2.2237750000	0.0337636000
2.2238890000	0.0335959000
2.2240020000	0.0334282000
2.2240030000	0.1317563000
2.2241160000	0.1315886000
2.2242300000	0.1314209000
2.2243430000	0.0329251000
2.2244570000	0.0327574000
2.2245710000	0.0325897000
2.2246850000	0.0324220000
2.2247980000	0.0322543000
2.2249120000	0.0320866000
2.2250260000	0.0319189000
2.2251390000	0.0317512000
2.2252530000	0.0315835000
2.2253670000	0.0314158000
2.2254800000	0.0312481000
2.2255940000	0.0310804000
2.2257080000	0.0309127000
2.2258220000	0.0307450000
2.2259350000	0.0305773000
2.2260490000	0.0304096000
2.2261630000	0.0302419000
2.2262760000	0.0300742000
2.2263900000	0.0299065000
2.2263900000	0.1282346000
2.2265040000	0.1280669000
2.2266170000	0.0295711000
2.2267310000	0.0294034000
2.2268450000	0.0292357000
2.2269590000	0.0290680000
2.2270720000	0.0289003000
2.2271860000	0.0287326000
2.2273000000	0.0285649000
2.2273000000	0.1268930000
2.2274140000	0.1267253000
2.2275270000	0.1265576000
2.2276410000	0.1263899000
2.2277550000	0.1262222000
2.2278680000	0.1260545000
2.2279820000	0.1258868000
2.2280960000	0.1257191000
2.2282090000	0.1255514000
2.2283230000	0.1253837000
2.2284370000	0.1252160000
2.2285510000	0.1250483000
2.2286640000	0.1248806000
2.2287780000	0.1247129000
2.2288920000	0.1245452000
2.2290050000	0.1243775000
2.2291190000	0.1242098000
2.2292330000	0.1240421000
2.2293470000	0.1238744000
2.2294600000	0.1237067000
2.2295740000	0.1235390000
2.2296870000	0.0250432000
2.2298010000	0.0248755000
2.2299150000	0.0247078000
2.2300280000	0.0245401000
2.2300290000	0.1228682000
2.2301420000	0.1227005000
2.2302560000	0.1225328000
2.2303700000	0.1223651000
2.2304840000	0.1221974000
2.2305970000	0.1220297000
2.2307110000	0.1218620000
2.2308240000	0.0233662000
2.2309380000	0.0231985000
2.2309380000	0.1215266000
2.2310520000	0.1213589000
2.2311660000	0.1211912000
2.2312790000	0.1210235000
2.2313930000	0.1208558000
2.2315070000	0.1206881000
2.2316210000	0.1205204000
2.2317340000	0.1203527000
2.2318480000	0.1201850000
2.2319620000	0.1200173000
2.2320750000	0.1198496000
2.2321890000	0.1196819000
2.2323030000	0.1195142000
2.2324160000	0.1193465000
2.2325300000	0.1191788000
2.2326440000	0.1190111000
2.2327580000	0.1188434000
2.2328710000	0.1186757000
2.2329850000	0.1185080000
2.2330990000	0.1183403000
2.2332120000	0.1181726000
2.2333260000	0.1180049000
2.2334400000	0.1178372000
2.2335530000	0.1176695000
2.2336670000	0.1175018000
2.2337810000	0.1173341000
2.2338950000	0.1171664000
2.2340080000	0.1169987000
2.2341220000	0.1168310000
2.2342360000	0.1166633000
2.2343490000	0.1164956000
2.2344630000	0.1163279000
2.2345770000	0.1161602000
2.2346900000	0.1159925000
2.2348040000	0.1158248000
2.2349180000	0.1156571000
2.2350320000	0.1154894000
2.2351450000	0.1153217000
2.2352590000	0.1151540000
2.2353730000	0.1149863000
2.2354860000	0.1148186000
2.2356000000	0.1146509000
2.2357140000	0.1144832000
2.2358270000	0.1143155000
2.2359410000	0.1141478000
2.2360550000	0.1139801000
2.2361690000	0.1138124000
2.2362820000	0.1136447000
2.2363960000	0.1134770000
2.2365100000	0.1133093000
2.2366230000	0.1131416000
2.2367370000	0.1129739000
2.2368510000	0.1128062000
2.2369640000	0.1126385000
2.2370780000	0.1124708000
2.2371920000	0.1123031000
2.2373060000	0.1121354000
2.2374190000	0.1119677000
2.2375330000	0.1118000000
2.2376470000	0.1116323000
2.2377600000	0.1114646000
2.2378740000	0.1112969000
2.2379880000	0.1111292000
2.2381010000	0.1109615000
2.2382150000	0.1107938000
2.2383290000	0.1106261000
2.2384430000	0.1104584000
2.2385560000	0.1102907000
2.2386700000	0.1101230000
2.2387840000	0.1099553000
2.2388970000	0.1097876000
2.2390110000	0.1096199000
2.2391250000	0.1094522000
2.2392380000	0.1092845000
2.2393520000	0.1091168000
2.2394660000	0.1089491000
2.2395800000	0.1087814000
2.2396930000	0.1086137000
2.2398070000	0.1084460000
2.2399210000	0.1082783000
2.2400340000	0.1081106000
2.2401480000	0.1079429000
2.2402620000	0.1077752000
2.2403750000	0.1076075000
2.2404890000	0.1074398000
2.2406030000	0.1072721000
2.2407170000	0.1071044000
2.2408300000	0.1069367000
2.2409440000	0.1067690000
2.2410580000	0.1066013000
2.2411710000	0.1064336000
2.2412850000	0.1062659000
2.2413990000	0.1060982000
2.2415120000	0.1059305000
2.2416260000	0.1057628000
2.2417400000	0.1055951000
2.2418540000	0.1054274000
2.2419670000	0.1052597000
2.2420810000	0.1050920000
2.2421950000	0.1049243000
2.2423080000	0.1047566000
2.2424220000	0.1045889000
2.2425360000	0.1044212000
2.2426490000	0.1042535000
2.2427630000	0.1040858000
2.2428770000	0.1039181000
2.2429910000	0.1037504000
2.2431040000	0.1035827000
2.2432180000	0.1034150000
2.2433320000	0.1032473000
2.2434450000	0.1030796000
2.2434460000	0.2014077000
2.2435590000	0.2012400000
2.2436730000	0.2010723000
2.2437870000	0.2009046000
2.2439000000	0.2007369000
2.2440140000	0.2005692000
2.2441280000	0.2004015000
2.2442420000	0.2002338000
2.2443550000	0.2000661000
2.2443550000	0.2983942000
2.2444690000	0.2982265000
2.2445830000	0.2980588000
2.2446970000	0.2978911000
2.2448100000	0.1993953000
2.2449240000	0.1992276000
2.2450370000	0.1990599000
2.2451510000	0.1988922000
2.2452650000	0.1987245000
2.2453790000	0.1985568000
2.2454920000	0.1983891000
2.2456060000	0.1982214000
2.2457200000	0.1980537000
2.2458330000	0.1978860000
2.2459470000	0.1977183000
2.2460610000	0.1975506000
2.2461740000	0.1973829000
2.2462880000	0.1972152000
2.2464020000	0.1970475000
2.2465160000	0.1968798000
2.2466290000	0.1967121000
2.2467430000	0.1965444000
2.2468570000	0.1963767000
2.2469700000	0.1962090000
2.2470840000	0.1960413000
2.2471980000	0.1958736000
2.2473110000	0.1957059000
2.2474250000	0.1955382000
2.2475390000	0.1953705000
2.2476530000	0.1952028000
2.2477660000	0.1950351000
2.2478800000	0.1948674000
2.2479940000	0.1946997000
2.2481070000	0.1945320000
2.2482210000	0.1943643000
2.2483350000	0.1941966000
2.2484480000	0.1940289000
2.2484490000	0.2923570000
2.2485620000	0.2921893000
2.2486760000	0.2920216000
2.2487900000	0.2918539000
2.2487900000	0.3901819000
2.2489040000	0.3900142000
2.2490170000	0.3898465000
2.2491310000	0.3896788000
2.2492450000	0.3895111000
2.2493580000	0.3893434000
2.2494720000	0.3891757000
2.2495860000	0.3890080000
2.2495860000	0.4873361000
2.2497000000	0.4871684000
2.2498140000	0.4870007000
2.2499270000	0.4868330000
2.2500410000	0.4866653000
2.2501550000	0.4864976000
2.2502680000	0.4863299000
2.2503820000	0.4861622000
2.2504960000	0.4859945000
2.2506090000	0.4858268000
2.2507230000	0.4856591000
2.2508370000	0.3871633000
2.2508370000	0.4854914000
2.2509510000	0.4853237000
2.2510640000	0.3868279000
2.2510640000	0.4851560000
2.2511780000	0.4849883000
2.2512920000	0.4848206000
2.2514050000	0.4846529000
2.2515190000	0.4844852000
2.2515190000	0.5828133000
2.2516330000	0.5826456000
2.2516330000	0.6809737000
2.2517470000	0.6808060000
2.2518610000	0.6806383000
2.2519740000	0.6804706000
2.2520880000	0.6803029000
2.2522020000	0.6801352000
2.2523150000	0.6799675000
2.2524290000	0.6797998000
2.2524290000	0.7781279000
2.2525430000	0.7779602000
2.2526570000	0.7777925000
2.2526570000	0.8761206000
2.2527710000	0.8759529000
2.2528840000	0.7774571000
2.2528840000	0.8757852000
2.2529980000	0.8756175000
2.2531120000	0.8754498000
2.2532250000	0.8752821000
2.2533390000	0.8751144000
2.2534530000	0.8749467000
2.2535670000	0.8747790000
2.2535670000	0.9731071000
2.2536800000	0.9729394000
2.2537940000	0.9727717000
2.2539080000	0.9726040000
2.2540220000	0.9724363000
2.2540220000	1.0707640000
2.2541350000	1.0705970000
2.2542490000	1.0704290000
2.2543630000	1.0702610000
2.2544770000	1.0700940000
2.2544770000	1.1684220000
2.2545900000	1.1682540000
2.2547040000	1.1680860000
2.2548180000	1.1679190000
2.2548180000	1.2662470000
2.2549320000	1.2660790000
2.2550460000	1.2659110000
2.2551590000	1.2657440000
2.2552730000	1.2655760000
2.2553860000	1.1670800000
2.2553870000	1.2654080000
2.2555000000	1.2652400000
2.2556140000	1.2650730000
2.2556140000	1.3634010000
2.2557280000	1.3632330000
2.2558420000	1.3630650000
2.2558420000	1.4613940000
2.2559560000	1.4612260000
2.2560690000	1.4610580000
2.2560690000	1.5593860000
2.2561830000	1.5592180000
2.2562970000	1.5590510000
2.2564110000	1.5588830000
2.2564110000	1.6572110000
2.2565250000	1.6570430000
2.2565250000	1.7553720000
2.2566380000	1.7552040000
2.2567520000	1.7550360000
2.2567520000	1.8533640000
2.2568660000	1.8531970000
2.2568660000	1.9515250000
2.2569800000	1.9513570000
2.2570940000	1.9511890000
2.2572070000	1.9510220000
2.2573210000	1.9508540000
2.2573210000	2.0491820000
2.2574350000	2.0490140000
2.2575490000	2.0488470000
2.2576620000	2.0486790000
2.2576630000	2.1470070000
2.2577760000	2.1468390000
2.2578900000	2.1466720000
2.2578900000	2.2450000000
2.2580040000	2.2448320000
2.2580040000	2.3431600000
2.2581180000	2.3429920000
2.2581180000	2.4413200000
2.2582320000	2.4411530000
2.2583460000	2.4409850000
2.2583460000	2.5393130000
2.2584590000	2.5391450000
2.2584600000	2.6374730000
2.2585730000	2.6373060000
2.2585740000	2.7356340000
2.2586870000	2.7354660000
2.2586880000	2.8337940000
2.2588010000	2.8336270000
2.2589150000	2.8334590000
2.2589150000	2.9317870000
2.2590290000	2.9316190000
2.2590290000	3.0299470000
2.2591430000	3.0297800000
2.2592560000	3.0296120000
2.2592570000	3.1279400000
2.2593700000	3.1277720000
2.2594840000	3.1276050000
2.2594840000	3.2259330000
2.2595980000	3.2257650000
2.2595980000	3.3240930000
2.2595980000	3.4224210000
2.2597120000	3.4222530000
2.2597120000	3.5205820000
2.2598260000	3.5204140000
2.2598260000	3.6187420000
2.2599400000	3.6185740000
2.2599400000	3.7169020000
2.2600540000	3.7167350000
2.2601680000	3.7165670000
2.2601680000	3.8148950000
2.2602820000	3.8147270000
2.2603950000	3.8145600000
2.2603950000	3.9128880000
2.2603960000	4.0112160000
2.2605090000	4.0110480000
2.2606230000	4.0108800000
2.2606230000	4.1092080000
2.2607370000	4.1090410000
2.2607370000	4.3056970000
2.2607380000	4.4040250000
2.2608510000	4.4038570000
2.2609650000	4.4036900000
2.2609650000	4.5020180000
2.2609660000	4.6003460000
2.2610790000	4.6001780000
2.2610790000	4.6985060000
2.2611930000	4.6983380000
2.2611930000	4.7966670000
2.2613070000	4.7964990000
2.2613080000	4.9931550000
2.2614210000	4.9929870000
2.2614220000	5.1896440000
2.2615350000	5.1894760000
2.2615360000	5.2878040000
2.2616490000	5.2876360000
2.2616500000	5.4842920000
2.2617630000	5.4841250000
2.2617640000	5.5824530000
2.2617640000	5.6807810000
2.2618780000	5.6806130000
2.2618780000	5.7789410000
2.2619920000	5.7787740000
2.2619920000	5.8771020000
2.2621050000	5.8769340000
2.2621060000	5.9752620000
2.2622190000	5.9750940000
2.2622200000	6.0734220000
2.2623330000	6.0732550000
2.2623340000	6.2699110000
2.2623340000	6.3682390000
2.2624480000	6.3680710000
2.2624480000	6.4663990000
2.2625620000	6.4662320000
2.2625620000	6.5645600000
2.2625620000	6.6628880000
2.2626760000	6.6627200000
2.2626760000	6.7610480000
2.2627900000	6.7608810000
2.2627900000	6.9575370000
2.2629040000	6.9573690000
2.2629040000	7.1540250000
2.2629040000	7.2523530000
2.2630180000	7.2521860000
2.2630180000	7.3505140000
2.2631320000	7.3503460000
2.2631330000	7.5470020000
2.2632460000	7.5468340000
2.2632460000	7.6451620000
2.2632470000	7.7434910000
2.2633600000	7.7433230000
2.2633610000	7.8416510000
2.2633610000	7.9399790000
2.2634750000	7.9398110000
2.2634750000	8.1364680000
2.2635890000	8.1363000000
2.2635890000	8.4312840000
2.2637030000	8.4311160000
2.2637040000	8.6277730000
2.2638170000	8.6276050000
2.2638180000	8.8242610000
2.2639310000	8.8240930000
2.2639320000	8.9224210000
2.2640450000	8.9222540000
2.2640460000	9.1189100000
2.2641590000	9.1187420000
2.2641600000	9.4137260000
2.2641600000	9.5120550000
2.2642740000	9.5118870000
2.2642740000	9.6102150000
2.2643880000	9.6100470000
2.2643880000	9.7083750000
2.2643880000	9.8067030000
2.2645020000	9.8065360000
2.2645030000	10.1015200000
2.2646160000	10.1013500000
2.2646170000	10.1996800000
2.2647300000	10.1995100000
2.2647310000	10.5928300000
2.2648450000	10.5926600000
2.2648460000	10.9859700000
2.2648460000	11.0843000000
2.2649600000	11.0841300000
2.2649600000	11.3791100000
2.2650740000	11.3789500000
2.2650740000	11.4772700000
2.2650750000	11.5756000000
2.2651880000	11.5754400000
2.2651890000	11.8704200000
2.2653030000	11.8702500000
2.2653030000	11.9685800000
2.2654170000	11.9684100000
2.2654180000	12.3617200000
2.2654180000	12.4600500000
2.2655310000	12.4598800000
2.2655320000	12.5582100000
2.2655320000	12.6565400000
2.2656460000	12.6563700000
2.2656470000	13.0496900000
2.2657600000	13.0495200000
2.2657610000	13.4428300000
2.2658750000	13.4426600000
2.2658750000	13.6393200000
2.2659890000	13.6391500000
2.2659890000	13.8358100000
2.2659900000	13.9341400000
2.2661030000	13.9339700000
2.2661040000	14.0323000000
2.2661040000	14.1306200000
2.2662170000	14.1304600000
2.2662180000	14.2287800000
2.2662180000	14.3271100000
2.2663320000	14.3269400000
2.2663320000	14.6219300000
2.2663330000	14.7202600000
2.2664460000	14.7200900000
2.2664460000	14.8184200000
2.2664470000	14.9167500000
2.2665600000	14.9165800000
2.2665610000	15.2115600000
2.2665610000	15.3098900000
2.2666750000	15.3097200000
2.2666750000	15.5063800000
2.2667890000	15.5062100000
2.2667900000	15.8995200000
2.2667900000	15.9978500000
2.2669040000	15.9976800000
2.2669050000	16.3910000000
2.2669050000	16.4893200000
2.2670190000	16.4891600000
2.2670190000	16.7841400000
2.2671330000	16.7839700000
2.2671350000	17.4722700000
2.2672480000	17.4721000000
2.2672490000	17.6687600000
2.2673630000	17.6685900000
2.2673630000	18.0619000000
2.2673640000	18.1602300000
2.2674770000	18.1600600000
2.2674780000	18.3567200000
2.2675910000	18.3565500000
2.2675930000	18.9465200000
2.2677070000	18.9463500000
2.2677070000	19.3396600000
2.2678210000	19.3395000000
2.2678220000	19.6344800000
2.2678220000	19.7328100000
2.2679360000	19.7326400000
2.2679360000	19.9293000000
2.2679360000	20.0276300000
2.2680500000	20.0274600000
2.2680510000	20.5191000000
2.2680510000	20.6174300000
2.2681650000	20.6172600000
2.2681650000	20.7155900000
2.2681660000	20.8139200000
2.2682790000	20.8137500000
2.2682810000	21.5020400000
2.2683950000	21.5018800000
2.2683950000	21.6002000000
2.2685080000	21.6000400000
2.2685100000	22.1900100000
2.2686240000	22.1898400000
2.2686240000	22.2881700000
2.2686240000	22.3864900000
2.2687380000	22.3863300000
2.2687390000	22.8779700000
2.2688520000	22.8778000000
2.2688530000	22.9761300000
2.2688530000	23.0744500000
2.2689670000	23.0742900000
2.2689680000	23.5659300000
2.2689680000	23.6642600000
2.2690820000	23.6640900000
2.2690820000	23.7624200000
2.2690820000	23.8607400000
2.2691960000	23.8605800000
2.2691970000	24.4505400000
2.2693110000	24.4503800000
2.2693110000	24.5487100000
2.2694250000	24.5485400000
2.2694260000	25.2368300000
2.2695400000	25.2366700000
2.2695400000	25.4333200000
2.2696540000	25.4331600000
2.2696560000	26.1214500000
2.2697690000	26.1212800000
2.2697700000	26.3179400000
2.2698840000	26.3177700000
2.2698850000	27.1044000000
2.2699990000	27.1042300000
2.2700000000	27.4975400000
2.2700000000	27.5958700000
2.2701140000	27.5957000000
2.2701150000	28.0873400000
2.2702290000	28.0871700000
2.2702300000	28.6771400000
2.2702300000	28.7754700000
2.2703440000	28.7753000000
2.2703440000	28.9719600000
2.2704580000	28.9717900000
2.2704590000	29.4634300000
2.2704590000	29.5617600000
2.2705730000	29.5615900000
2.2705740000	29.8565800000
2.2706880000	29.8564100000
2.2706880000	30.1513900000
2.2706880000	30.2497200000
2.2708020000	30.2495500000
2.2708030000	30.5445400000
2.2709170000	30.5443700000
2.2709170000	30.8393600000
2.2709170000	30.9376800000
2.2710310000	30.9375200000
2.2710320000	31.3308300000
2.2711460000	31.3306600000
2.2711470000	31.7239700000
2.2712600000	31.7238000000
2.2712610000	32.2154500000
2.2713750000	32.2152800000
2.2713770000	32.9035700000
2.2714900000	32.9034100000
2.2714910000	33.1000600000
2.2716050000	33.0998900000
2.2716060000	33.6898600000
2.2717200000	33.6897000000
2.2717200000	33.9846800000
2.2718340000	33.9845100000
2.2718350000	34.4761500000
2.2718350000	34.5744800000
2.2719490000	34.5743100000
2.2719500000	34.9676300000
2.2720640000	34.9674600000
2.2720650000	35.4591000000
2.2721780000	35.4589300000
2.2721790000	35.8522400000
2.2722930000	35.8520800000
2.2722950000	36.5403700000
2.2724080000	36.5402000000
2.2724090000	36.6385300000
2.2724090000	36.7368600000
2.2725220000	36.7366900000
2.2725240000	37.3266600000
2.2725240000	37.4249900000
2.2726380000	37.4248200000
2.2726380000	37.5231500000
2.2727520000	37.5229800000
2.2727530000	38.0146200000
2.2727530000	38.1129500000
2.2728670000	38.1127800000
2.2728670000	38.2111100000
2.2729810000	38.2109400000
2.2729810000	38.6042600000
2.2730950000	38.6040900000
2.2730960000	38.8990700000
2.2732100000	38.8989000000
2.2732110000	39.4888700000
2.2733250000	39.4887100000
2.2733250000	39.6853600000
2.2734390000	39.6851900000
2.2734400000	40.3734900000
2.2734410000	40.4718200000
2.2735540000	40.4716500000
2.2735540000	40.5699800000
2.2736680000	40.5698100000
2.2736690000	40.8648000000
2.2736690000	40.9631200000
2.2737830000	40.9629600000
2.2737830000	41.2579400000
2.2737840000	41.3562700000
2.2738970000	41.3561000000
2.2738990000	41.9460700000
2.2740120000	41.9459000000
2.2740130000	42.0442300000
2.2740130000	42.1425600000
2.2741270000	42.1423900000
2.2741270000	42.4373700000
2.2742410000	42.4372100000
2.2742420000	42.9288500000
2.2742420000	43.0271700000
2.2743560000	43.0270100000
2.2743570000	43.5186500000
2.2743570000	43.6169800000
2.2744710000	43.6168100000
2.2744710000	43.8134600000
2.2744720000	43.9117900000
2.2745850000	43.9116200000
2.2745870000	44.5999200000
2.2747010000	44.5997500000
2.2747010000	44.7964100000
2.2747010000	44.8947400000
2.2748150000	44.8945700000
2.2748170000	45.5828700000
2.2749300000	45.5827000000
2.2749310000	45.7793500000
2.2750440000	45.7791900000
2.2750460000	46.4674800000
2.2751600000	46.4673200000
2.2751600000	46.6639700000
2.2751600000	46.7623000000
2.2752740000	46.7621300000
2.2752750000	47.2537700000
2.2752750000	47.3521000000
2.2753890000	47.3519300000
2.2753900000	47.6469200000
2.2755030000	47.6467500000
2.2755050000	48.1383900000
2.2755050000	48.2367200000
2.2756190000	48.2365500000
2.2756190000	48.5315400000
2.2757330000	48.5313700000
2.2757340000	48.9246800000
2.2757340000	49.0230100000
2.2758480000	49.0228400000
2.2758480000	49.1211700000
2.2759620000	49.1210000000
2.2759630000	49.6126400000
2.2759630000	49.7109700000
2.2760770000	49.7108000000
2.2760770000	49.8091300000
2.2761910000	49.8089600000
2.2761920000	50.3989300000
2.2763060000	50.3987600000
2.2763060000	50.5954200000
2.2764200000	50.5952500000
2.2764200000	50.8902400000
2.2765340000	50.8900700000
2.2765350000	51.2833800000
2.2766490000	51.2832100000
2.2766500000	51.6765200000
2.2767630000	51.6763600000
2.2767640000	52.0696700000
2.2767640000	52.1680000000
2.2768780000	52.1678300000
2.2768790000	52.7578000000
2.2768800000	52.8561300000
2.2769930000	52.8559600000
2.2769940000	53.0526100000
2.2771080000	53.0524500000
2.2771080000	53.4457600000
2.2772220000	53.4455900000
2.2772230000	53.8389000000
2.2773370000	53.8387400000
2.2773380000	54.3303800000
2.2773380000	54.4287000000
2.2774520000	54.4285400000
2.2774520000	54.5268700000
2.2774520000	54.6251900000
2.2775660000	54.6250300000
2.2775670000	55.0183400000
2.2775670000	55.1166700000
2.2776810000	55.1165000000
2.2776810000	55.4114800000
2.2777950000	55.4113100000
2.2777960000	56.0012800000
2.2779100000	56.0011200000
2.2779110000	56.1977700000
2.2780240000	56.1976000000
2.2780250000	56.5909200000
2.2781390000	56.5907500000
2.2781400000	56.8857300000
2.2782530000	56.8855700000
2.2782540000	57.2788800000
2.2782540000	57.3772100000
2.2783680000	57.3770400000
2.2783690000	57.6720200000
2.2783690000	57.7703500000
2.2784830000	57.7701800000
2.2784830000	57.8685100000
2.2785970000	57.8683400000
2.2785980000	58.4583100000
2.2787120000	58.4581400000
2.2787120000	58.6548000000
2.2787120000	58.7531300000
2.2788260000	58.7529600000
2.2788270000	59.3429300000
2.2788280000	59.4412600000
2.2789410000	59.4410900000
2.2789420000	59.7360700000
2.2790560000	59.7359100000
2.2790560000	60.0308900000
2.2790570000	60.1292200000
2.2791700000	60.1290500000
2.2791710000	60.4240300000
2.2791710000	60.5223600000
2.2792850000	60.5222000000
2.2792860000	60.8171800000
2.2793990000	60.8170100000
2.2793990000	60.9153400000
2.2795130000	60.9151700000
2.2795140000	61.3084800000
2.2795140000	61.4068100000
2.2796280000	61.4066500000
2.2796280000	61.5049700000
2.2797420000	61.5048100000
2.2797440000	62.2914300000
2.2797440000	62.3897600000
2.2798580000	62.3895900000
2.2798580000	62.6845700000
2.2798590000	62.7829000000
2.2799720000	62.7827400000
2.2799730000	63.1760500000
2.2800870000	63.1758800000
2.2800870000	63.3725400000
2.2802010000	63.3723700000
2.2802020000	63.6673500000
2.2803150000	63.6671800000
2.2803160000	63.8638400000
2.2804290000	63.8636700000
2.2804310000	64.3553100000
2.2805440000	64.3551500000
2.2805450000	64.4534700000
2.2806580000	64.4533100000
2.2806590000	64.9449500000
2.2807730000	64.9447800000
2.2807730000	65.0431100000
2.2807730000	65.1414400000
2.2808870000	65.1412700000
2.2808880000	65.6329100000
2.2808890000	65.7312400000
2.2810020000	65.7310700000
2.2810020000	65.8294000000
2.2811160000	65.8292300000
2.2811170000	66.3208700000
2.2811170000	66.4192000000
2.2812310000	66.4190300000
2.2812310000	66.5173600000
2.2813450000	66.5171900000
2.2813460000	67.0088300000
2.2814600000	67.0086600000
2.2814600000	67.1069900000
2.2814600000	67.2053200000
2.2815740000	67.2051500000
2.2815750000	67.5984600000
2.2815750000	67.6967900000
2.2816890000	67.6966200000
2.2816890000	67.7949500000
2.2816890000	67.8932800000
2.2818030000	67.8931100000
2.2818040000	68.1881000000
2.2819170000	68.1879300000
2.2819180000	68.2862600000
2.2819180000	68.3845900000
2.2820320000	68.3844200000
2.2820320000	68.5810700000
2.2820320000	68.6794000000
2.2821460000	68.6792300000
2.2821460000	68.7775600000
2.2821460000	68.8758900000
2.2822600000	68.8757200000
2.2822600000	68.9740500000
2.2823740000	68.9738800000
2.2823740000	69.1705400000
2.2824880000	69.1703700000
2.2824890000	69.3670300000
2.2824890000	69.4653600000
2.2826030000	69.4651900000
2.2826030000	69.5635200000
2.2827160000	69.5633500000
2.2827170000	69.7600000000
2.2828310000	69.7598400000
2.2828310000	69.8581600000
2.2828310000	69.9564900000
2.2829450000	69.9563300000
2.2829450000	70.0546500000
2.2830590000	70.0544900000
2.2830590000	70.1528100000
2.2831730000	70.1526500000
2.2831730000	70.2509700000
2.2832870000	70.2508100000
2.2832870000	70.3491300000
2.2832870000	70.4474600000
2.2834010000	70.4472900000
2.2834010000	70.5456200000
2.2835150000	70.5454600000
2.2835150000	70.6437800000
2.2836290000	70.6436200000
2.2836290000	70.7419400000
2.2836290000	70.8402700000
2.2837430000	70.8401000000
2.2837430000	70.9384300000
2.2837430000	71.0367600000
2.2838570000	71.0365900000
2.2839710000	71.0364200000
2.2839710000	71.1347500000
2.2840840000	71.1345900000
2.2841980000	71.1344200000
2.2841980000	71.2327500000
2.2843120000	71.2325800000
2.2843120000	71.3309100000
2.2844260000	71.3307400000
2.2845400000	71.3305700000
2.2845400000	71.4289000000
2.2846540000	71.4287300000
2.2847670000	71.4285600000
2.2848810000	71.4284000000
2.2849950000	71.4282300000
2.2851080000	71.4280600000
2.2852220000	71.3295600000
2.2853350000	71.2310700000
2.2854490000	71.2309000000
2.2855630000	71.2307300000
2.2856760000	71.1322400000
2.2857900000	71.0337400000
2.2859030000	70.9352500000
2.2860170000	70.9350800000
2.2861300000	70.8365800000
2.2862430000	70.5414300000
2.2863570000	70.4429300000
2.2864700000	70.2461100000
2.2865830000	70.0492900000
2.2866970000	69.9507900000
2.2868100000	69.7539700000
2.2869240000	69.6554700000
2.2870370000	69.5569800000
2.2871510000	69.4584800000
2.2872640000	69.4583100000
2.2873780000	69.2614900000
2.2874910000	69.0646600000
2.2876040000	68.8678400000
2.2877180000	68.8676700000
2.2878310000	68.5725200000
2.2879440000	68.4740300000
2.2880570000	68.2772000000
2.2881710000	68.1787100000
2.2882840000	67.9818800000
2.2883970000	67.7850600000
2.2885110000	67.6865600000
2.2886240000	67.3914100000
2.2887370000	67.0962600000
2.2888500000	66.8994300000
2.2889640000	66.8009400000
2.2890770000	66.6041100000
2.2891900000	66.4072900000
2.2893040000	66.3087900000
2.2894170000	66.1119700000
2.2895300000	65.9151500000
2.2896440000	65.8166500000
2.2897570000	65.7181600000
2.2898700000	65.5213300000
2.2899840000	65.3245100000
2.2900970000	65.1276800000
2.2902100000	64.9308600000
2.2903230000	64.7340400000
2.2904370000	64.6355400000
2.2905500000	64.5370400000
2.2906640000	64.3402200000
2.2907770000	64.1434000000
2.2908900000	63.9465700000
2.2910040000	63.8480800000
2.2911170000	63.7495800000
2.2912310000	63.6510900000
2.2913440000	63.6509200000
2.2914580000	63.5524200000
2.2915710000	63.4539300000
2.2916850000	63.3554300000
2.2917980000	63.3552600000
2.2919120000	63.2567700000
2.2920250000	63.1582700000
2.2921390000	63.1581000000
2.2922530000	63.1579400000
2.2923660000	63.1577700000
2.2924800000	63.1576000000
2.2925940000	63.0591000000
2.2927070000	63.0589400000
2.2928210000	63.0587700000
2.2929350000	63.0586000000
2.2930480000	63.0584300000
2.2931620000	63.0582700000
2.2932760000	63.0581000000
2.2933900000	63.0579300000
2.2935030000	63.0577600000
2.2935030000	63.1560900000
2.2936170000	63.1559200000
2.2937310000	63.1557600000
2.2937310000	63.2540800000
2.2938450000	63.2539200000
2.2938450000	63.3522400000
2.2939590000	63.3520800000
2.2939590000	63.4504000000
2.2940730000	63.4502400000
2.2940730000	63.5485700000
2.2941870000	63.5484000000
2.2943000000	63.5482300000
2.2943010000	63.6465600000
2.2944140000	63.6463900000
2.2944140000	63.7447200000
2.2945280000	63.7445500000
2.2946420000	63.7443800000
2.2946420000	63.8427100000
2.2947560000	63.8425400000
2.2947560000	63.9408700000
2.2948700000	63.9407000000
2.2948700000	64.0390300000
2.2949840000	64.0388600000
2.2949840000	64.1371900000
2.2949840000	64.2355200000
2.2950980000	64.2353500000
2.2950980000	64.4320100000
2.2952120000	64.4318400000
2.2952120000	64.5301700000
2.2952120000	64.6285000000
2.2953260000	64.6283300000
2.2953260000	64.8249900000
2.2953270000	64.9233100000
2.2954400000	64.9231500000
2.2954410000	65.0214700000
2.2955540000	65.0213100000
2.2955550000	65.1196300000
2.2955550000	65.2179600000
2.2956680000	65.2177900000
2.2956690000	65.3161200000
2.2957820000	65.3159600000
2.2957830000	65.4142800000
2.2957830000	65.5126100000
2.2958970000	65.5124400000
2.2958970000	65.6107700000
2.2960100000	65.6106000000
2.2960110000	65.7089300000
2.2960110000	65.8072600000
2.2961250000	65.8070900000
2.2961250000	65.9054200000
2.2961250000	66.0037500000
2.2962390000	66.0035800000
2.2962390000	66.2002400000
2.2963530000	66.2000700000
2.2963530000	66.3967300000
2.2964670000	66.3965600000
2.2964680000	66.5932100000
2.2965810000	66.5930500000
2.2965810000	66.6913700000
2.2965820000	66.7897000000
2.2966950000	66.7895300000
2.2966960000	66.8878600000
2.2968090000	66.8877000000
2.2968100000	67.0843500000
2.2969230000	67.0841800000
2.2969240000	67.1825100000
2.2969240000	67.2808400000
2.2970380000	67.2806700000
2.2970380000	67.3790000000
2.2971520000	67.3788300000
2.2971520000	67.4771600000
2.2971520000	67.5754900000
2.2972660000	67.5753200000
2.2972660000	67.6736500000
2.2972660000	67.7719800000
2.2973800000	67.7718100000
2.2973800000	67.9684700000
2.2974940000	67.9683000000
2.2974940000	68.0666300000
2.2974940000	68.1649500000
2.2976080000	68.1647900000
2.2976080000	68.2631100000
2.2977220000	68.2629500000
2.2977220000	68.3612700000
2.2978360000	68.3611100000
2.2978360000	68.4594400000
2.2979500000	68.4592700000
2.2980640000	68.4591000000
2.2981770000	68.4589300000
2.2982910000	68.4587600000
2.2984050000	68.4586000000
2.2985180000	68.4584300000
2.2986320000	68.4582600000
2.2987460000	68.3597700000
2.2988590000	68.2612700000
2.2989730000	68.2611000000
2.2990860000	68.1626100000
2.2992000000	68.0641100000
2.2993130000	67.8672900000
2.2994260000	67.7687900000
2.2995400000	67.5719700000
2.2996530000	67.2768200000
2.2997660000	67.0799900000
2.2998780000	66.3915300000
2.2999910000	65.9980500000
2.3001040000	65.7028900000
2.3002170000	65.5060700000
2.3003300000	65.3092500000
2.3004420000	64.4241300000
2.3005540000	63.6373300000
2.3006670000	63.1455300000
2.3007780000	62.1620800000
2.3008910000	61.8669300000
2.3010030000	60.8834800000
2.3011160000	60.5883300000
2.3012260000	59.3098900000
2.3013400000	59.1130700000
2.3014520000	58.5229300000
2.3014530000	59.0145700000
2.3014540000	59.2112300000
2.3014540000	59.3095600000
2.3014540000	59.4078800000
2.3015620000	57.0478400000
2.3016740000	56.2610500000
2.3017880000	56.0642300000
2.3018970000	54.3924800000
2.3020080000	53.2123800000
2.3021200000	52.3272600000
2.3022310000	51.2454800000
2.3023420000	50.0653800000
2.3024540000	49.0819300000
2.3024550000	49.6718900000
2.3024550000	49.7702200000
2.3025690000	49.7700600000
2.3025700000	49.9667100000
2.3025700000	50.0650400000
2.3025700000	50.1633700000
2.3026740000	46.0334200000
2.3027870000	45.7382700000
2.3028970000	43.8698700000
2.3030100000	43.5747200000
2.3031200000	42.0996300000
2.3031220000	42.9845800000
2.3031230000	43.3778900000
2.3031240000	43.5745500000
2.3031240000	43.6728800000
2.3031240000	43.7712000000
2.3032310000	40.7228700000
2.3033430000	39.9360700000
2.3034560000	39.7392500000
2.3035660000	37.9691800000
2.3036790000	37.7723500000
2.3037890000	36.1006100000
2.3037910000	36.9855600000
2.3037920000	37.4772000000
2.3037920000	37.6738600000
2.3037930000	37.7721800000
2.3037930000	37.8705100000
2.3038990000	34.6255200000
2.3040110000	33.6420700000
2.3041220000	32.6586200000
2.3042330000	31.6751700000
2.3043470000	31.4783500000
2.3044560000	29.7082700000
2.3045700000	29.5114500000
2.3046800000	28.1346900000
2.3046820000	28.9213100000
2.3046830000	29.3146300000
2.3046830000	29.5112800000
2.3046840000	29.6096100000
2.3047910000	26.9545900000
2.3049040000	26.3644500000
2.3050170000	26.0693000000
2.3051270000	24.7908600000
2.3052410000	24.5940400000
2.3053510000	23.3156100000
2.3054650000	23.1187800000
2.3055760000	21.8403500000
2.3056890000	21.6435300000
2.3058000000	20.4634200000
2.3059130000	20.1682700000
2.3060240000	19.1848200000
2.3061380000	18.9880000000
2.3062490000	17.8078900000
2.3063620000	17.5127400000
2.3064730000	16.6276200000
2.3064750000	17.2175900000
2.3064750000	17.5125700000
2.3064760000	17.7092300000
2.3064760000	17.8075600000
2.3065850000	15.7425000000
2.3066980000	15.3490200000
2.3068110000	15.1522000000
2.3069220000	14.1687500000
2.3070360000	14.0702500000
2.3071480000	13.2834600000
2.3072610000	13.0866400000
2.3073730000	12.2998400000
2.3074860000	12.1030200000
2.3075990000	11.5128800000
2.3077120000	11.3160600000
2.3078250000	10.8242500000
2.3079380000	10.6274300000
2.3080510000	10.2339500000
2.3081640000	10.0371200000
2.3082770000	9.6436430000
2.3083900000	9.4468190000
2.3085030000	9.1516670000
2.3086160000	8.8565150000
2.3087290000	8.4630350000
2.3088420000	8.2662110000
2.3089550000	7.8727310000
2.3090680000	7.7742360000
2.3091810000	7.3807560000
2.3092940000	7.1839320000
2.3094080000	6.9871080000
2.3094080000	7.1837640000
2.3094080000	7.2820920000
2.3095200000	6.4953000000
2.3096340000	6.3968040000
2.3097470000	6.2983080000
2.3098600000	6.1014840000
2.3099740000	5.9046600000
2.3100870000	5.7078360000
2.3102000000	5.6093410000
2.3103140000	5.5108450000
2.3104270000	5.3140210000
2.3105400000	5.1171970000
2.3106540000	4.9203730000
2.3107670000	4.7235490000
2.3108800000	4.5267260000
2.3109940000	4.4282300000
2.3111070000	4.2314060000
2.3112200000	4.1329100000
2.3113340000	4.0344140000
2.3114470000	3.9359180000
2.3115610000	3.8374230000
2.3115610000	3.9357510000
2.3116740000	3.5422710000
2.3117870000	3.5421030000
2.3119010000	3.4436070000
2.3120140000	3.3451110000
2.3121280000	3.3449440000
2.3122420000	3.2464480000
2.3123550000	3.2462800000
2.3124690000	3.1477840000
2.3125820000	3.0492890000
2.3126960000	2.9507930000
2.3128090000	2.8522970000
2.3129230000	2.7538010000
2.3130360000	2.7536340000
2.3131500000	2.6551380000
2.3132630000	2.5566420000
2.3133770000	2.4581460000
2.3134900000	2.3596500000
2.3136040000	2.3594830000
2.3137170000	2.2609870000
2.3138310000	2.1624910000
2.3139440000	2.0639950000
2.3140580000	2.0638280000
2.3141720000	1.9653320000
2.3142850000	1.8668360000
2.3143990000	1.8666680000
2.3145120000	1.8665010000
2.3146260000	1.7680050000
2.3147400000	1.7678370000
2.3148530000	1.6693410000
2.3149670000	1.6691740000
2.3150800000	1.5706780000
2.3151940000	1.5705100000
2.3151940000	1.6688380000
2.3153080000	1.6686710000
2.3154210000	1.5701750000
2.3155350000	1.5700070000
2.3156490000	1.5698390000
2.3157630000	1.5696720000
2.3158760000	1.4711760000
2.3159890000	1.3726800000
2.3161030000	1.3725130000
2.3162170000	1.3723450000
2.3163300000	1.2738490000
2.3164440000	1.1753530000
2.3165580000	1.1751860000
2.3166710000	1.1750180000
2.3167850000	1.1748500000
2.3168980000	1.0763540000
2.3170120000	1.0761870000
2.3171260000	1.0760190000
2.3172400000	1.0758510000
2.3173530000	0.9773555000
2.3174670000	0.9771878000
2.3175800000	0.9770201000
2.3176940000	0.9768524000
2.3178080000	0.9766847000
2.3179210000	0.9765170000
2.3180350000	0.8780212000
2.3181490000	0.8778535000
2.3182620000	0.8776858000
2.3183760000	0.8775181000
2.3184900000	0.8773504000
2.3186030000	0.8771827000
2.3187170000	0.8770150000
2.3188310000	0.8768473000
2.3189450000	0.8766796000
2.3190580000	0.8765119000
2.3191720000	0.8763442000
2.3192860000	0.8761765000
2.3193990000	0.8760088000
2.3195130000	0.7775130000
2.3196270000	0.7773453000
2.3197400000	0.7771776000
2.3198540000	0.7770099000
2.3199680000	0.7768422000
2.3200810000	0.7766745000
2.3201950000	0.6781787000
2.3203090000	0.6780110000
2.3204220000	0.6778433000
2.3205360000	0.6776756000
2.3206500000	0.6775079000
2.3207630000	0.6773402000
2.3208770000	0.6771725000
2.3209910000	0.6770048000
2.3211040000	0.6768371000
2.3212180000	0.6766694000
2.3213320000	0.6765017000
2.3214460000	0.6763340000
2.3215590000	0.6761663000
2.3216730000	0.5776705000
2.3217860000	0.5775028000
2.3219000000	0.5773351000
2.3220140000	0.5771674000
2.3221270000	0.4786716000
2.3222410000	0.4785039000
2.3223550000	0.4783362000
2.3224680000	0.4781685000
2.3225820000	0.4780008000
2.3226960000	0.4778331000
2.3228100000	0.4776654000
2.3229230000	0.4774977000
2.3230370000	0.4773300000
2.3231510000	0.4771623000
2.3232640000	0.3786666000
2.3233780000	0.3784989000
2.3234910000	0.3783312000
2.3236050000	0.3781635000
2.3237190000	0.3779958000
2.3238320000	0.2795000000
2.3239460000	0.2793323000
2.3240600000	0.2791646000
2.3241730000	0.1806688000
2.3241730000	0.2789969000
2.3242870000	0.2788292000
2.3244010000	0.2786615000
2.3245150000	0.2784938000
2.3246280000	0.2783261000
2.3247420000	0.2781584000
2.3248560000	0.2779907000
2.3249690000	0.2778230000
2.3250830000	0.2776553000
2.3251970000	0.2774876000
2.3253100000	0.2773199000
2.3254240000	0.2771522000
2.3255380000	0.2769845000
2.3256520000	0.2768168000
2.3257650000	0.2766491000
2.3258790000	0.2764814000
2.3259930000	0.2763137000
2.3261060000	0.2761460000
2.3262200000	0.2759783000
2.3263340000	0.2758106000
2.3264470000	0.2756429000
2.3265610000	0.2754752000
2.3266750000	0.2753075000
2.3267890000	0.2751398000
2.3269020000	0.2749721000
2.3270160000	0.2748044000
2.3271290000	0.1763086000
2.3272430000	0.1761409000
2.3273570000	0.1759732000
2.3274710000	0.1758055000
2.3275840000	0.1756378000
2.3276980000	0.1754701000
2.3278120000	0.1753024000
2.3278120000	0.2736305000
2.3279260000	0.2734628000
2.3280390000	0.2732951000
2.3281530000	0.1747993000
2.3282660000	0.1746316000
2.3283800000	0.1744639000
2.3284940000	0.1742962000
2.3286080000	0.1741285000
2.3287210000	0.1739608000
2.3288350000	0.1737931000
2.3289490000	0.1736254000
2.3290620000	0.0751295900
2.3291760000	0.0749618900
2.3292900000	0.0747941900
2.3294030000	0.0746264900
2.3295170000	0.0744587900
2.3296310000	0.0742910900
2.3297440000	0.0741233900
2.3298580000	0.0739556900
2.3299720000	0.0737879900
2.3300850000	0.0736202900
2.3301990000	0.0734525900
2.3303130000	0.0732848900
2.3304270000	0.0731171900
2.3305400000	0.0729494900
2.3306540000	0.0727817900
2.3307680000	0.0726140900
2.3307680000	0.1709422000
2.3308820000	0.1707745000
2.3309950000	0.1706068000
2.3311090000	0.0721109900
2.3312220000	0.0719432900
2.3313360000	0.0717755900
2.3314500000	0.0716078900
2.3315640000	0.0714401900
2.3316770000	0.0712724900
2.3317910000	0.0711047900
2.3319050000	0.0709370900
2.3320180000	0.0707693900
2.3321320000	0.0706016900
2.3322460000	0.0704339900
2.3323590000	0.0702662900
2.3324730000	0.0700985900
2.3325870000	0.0699308900
2.3327010000	0.0697631900
2.3328140000	0.0695954900
2.3329280000	0.0694277900
2.3330420000	0.0692600900
2.3331550000	0.0690923900
2.3332690000	0.0689246900
2.3333830000	0.0687569900
2.3334960000	0.0685892900
2.3336100000	0.0684215900
2.3336100000	0.1667497000
2.3337240000	0.1665820000
2.3338380000	0.0680861900
2.3339510000	0.0679184900
2.3340650000	0.0677507900
2.3341790000	0.0675830900
2.3342920000	0.0674153900
2.3342930000	0.1657435000
2.3344060000	0.1655758000
2.3345200000	0.0670799900
2.3345200000	0.1654081000
2.3346340000	0.1652404000
2.3347470000	0.0667445900
2.3348610000	0.0665768900
2.3349750000	0.0664091900
2.3350880000	0.0662414900
2.3352020000	0.0660737900
2.3353160000	0.0659060900
2.3354290000	0.0657383900
2.3355430000	0.0655706900
2.3356570000	0.0654029900
2.3356570000	0.1637311000
2.3357710000	0.1635634000
2.3358840000	0.1633957000
2.3359980000	0.0648998900
2.3361120000	0.0647321900
2.3362250000	0.0645644900
2.3363390000	0.0643967900
2.3364530000	0.0642290900
2.3365660000	0.0640613900
2.3366800000	0.0638936900
2.3367940000	0.0637259900
2.3369070000	0.0635582900
2.3370210000	0.0633905900
2.3370210000	0.1617187000
2.3371350000	0.1615510000
2.3372490000	0.0630551900
2.3372490000	0.1613833000
2.3373630000	0.1612156000
2.3374760000	0.1610479000
2.3375900000	0.1608802000
2.3377040000	0.1607125000
2.3378170000	0.1605448000
2.3379310000	0.1603771000
2.3380440000	0.0618812900
2.3381580000	0.0617135900
2.3382720000	0.0615458900
2.3383860000	0.0613781900
2.3383860000	0.1597063000
2.3385000000	0.1595386000
2.3386130000	0.0610427900
2.3387270000	0.0608750900
2.3388400000	0.0607073900
2.3389540000	0.0605396900
2.3390680000	0.0603719900
2.3391810000	0.0602042900
2.3392950000	0.0600365900
2.3394090000	0.0598688900
2.3394090000	0.1581970000
2.3395230000	0.1580293000
2.3396370000	0.1578616000
2.3397500000	0.1576939000
2.3398640000	0.1575262000
2.3399780000	0.1573585000
2.3400910000	0.0588626900
2.3402050000	0.0586949900
2.3403180000	0.0585272900
2.3403190000	0.1568554000
2.3404320000	0.1566877000
2.3405460000	0.1565200000
2.3406600000	0.1563523000
2.3407740000	0.1561846000
2.3408870000	0.0576887900
2.3410010000	0.0575210900
2.3411140000	0.0573533900
2.3412280000	0.0571856900
2.3413420000	0.0570179900
2.3413420000	0.1553461000
2.3414560000	0.1551784000
2.3415690000	0.1550107000
2.3416830000	0.1548430000
2.3417970000	0.1546753000
2.3419110000	0.1545076000
2.3420240000	0.1543399000
2.3421380000	0.1541722000
2.3422520000	0.1540045000
2.3423650000	0.1538368000
2.3424790000	0.1536691000
2.3425930000	0.1535014000
2.3427060000	0.0550055900
2.3428200000	0.0548378900
2.3429340000	0.0546701900
2.3429340000	0.1529983000
2.3430480000	0.1528306000
2.3431610000	0.1526629000
2.3432750000	0.1524952000
2.3433890000	0.1523275000
2.3435020000	0.1521598000
2.3436160000	0.1519921000
2.3437300000	0.1518244000
2.3438430000	0.1516567000
2.3439570000	0.1514890000
2.3440710000	0.1513213000
2.3441850000	0.1511536000
2.3442980000	0.1509859000
2.3444120000	0.1508182000
2.3445260000	0.1506505000
2.3446390000	0.1504828000
2.3447530000	0.1503151000
2.3448670000	0.1501474000
2.3449800000	0.1499797000
2.3450940000	0.1498120000
2.3452080000	0.1496443000
2.3453220000	0.1494766000
2.3454350000	0.0509807900
2.3455490000	0.0508130900
2.3456620000	0.0506453900
2.3457760000	0.0504776900
2.3458900000	0.0503099900
2.3458900000	0.1486381000
2.3460040000	0.1484704000
2.3461170000	0.1483027000
2.3462310000	0.1481350000
2.3463450000	0.1479673000
2.3464590000	0.1477996000
2.3465720000	0.1476319000
2.3466860000	0.1474642000
2.3468000000	0.1472965000
2.3469130000	0.1471288000
2.3470270000	0.1469611000
2.3471410000	0.1467934000
2.3472540000	0.1466257000
2.3473680000	0.1464580000
2.3474820000	0.0479621900
2.3475950000	0.0477944900
2.3477090000	0.0476267900
2.3478230000	0.0474590900
2.3479360000	0.0472913900
2.3480500000	0.0471236900
2.3481640000	0.0469559900
2.3482780000	0.0467882900
2.3483910000	0.0466205900
2.3485050000	0.0464528900
2.3485050000	0.1447810000
2.3486190000	0.1446133000
2.3487330000	0.1444456000
2.3488460000	0.0459497900
2.3489600000	0.0457820900
2.3490730000	0.0456143900
2.3491870000	0.0454466900
2.3493010000	0.0452789900
2.3494150000	0.0451112900
2.3495280000	0.0449435900
2.3496420000	0.0447758900
2.3497560000	0.0446081900
2.3498690000	0.0444404900
2.3499830000	0.0442727900
2.3500970000	0.0441050900
2.3500970000	0.1424332000
2.3502110000	0.1422655000
2.3503240000	0.1420978000
2.3504380000	0.0436019900
2.3505520000	0.0434342900
2.3506650000	0.0432665900
2.3507790000	0.0430988900
2.3508930000	0.0429311900
2.3510060000	0.0427634900
2.3510070000	0.1410916000
2.3511200000	0.1409239000
2.3512340000	0.1407562000
2.3513480000	0.1405885000
2.3514610000	0.0420926900
2.3515750000	0.0419249900
2.3515750000	0.1402531000
2.3516890000	0.1400854000
2.3518020000	0.1399177000
2.3519160000	0.1397500000
2.3520300000	0.1395823000
2.3521440000	0.1394146000
2.3522570000	0.0409187900
2.3523710000	0.0407510900
2.3524840000	0.0405833900
2.3525980000	0.0404156900
2.3527120000	0.0402479900
2.3528260000	0.0400802900
2.3529390000	0.0399125900
2.3530530000	0.0397448900
2.3530530000	0.1380730000
2.3531670000	0.1379053000
2.3532800000	0.0394094900
2.3533940000	0.0392417900
2.3535080000	0.0390740900
2.3536210000	0.0389063900
2.3537350000	0.0387386900
2.3538490000	0.0385709900
2.3539630000	0.0384032900
2.3540760000	0.0382355900
2.3541900000	0.0380679000
2.3543040000	0.0379002000
2.3544170000	0.0377325000
2.3545310000	0.0375648000
2.3546450000	0.0373971000
2.3547580000	0.0372294000
2.3548720000	0.0370617000
2.3549860000	0.0368940000
2.3551000000	0.0367263000
2.3552130000	0.0365586000
2.3553270000	0.0363909000
2.3554410000	0.0362232000
2.3555540000	0.0360555000
2.3556680000	0.0358878000
2.3557820000	0.0357201000
2.3558950000	0.0355524000
2.3560090000	0.0353847000
2.3561230000	0.0352170000
2.3562370000	0.0350493000
2.3563500000	0.0348816000
2.3564640000	0.0347139000
2.3565780000	0.0345462000
2.3566910000	0.0343785000
2.3568050000	0.0342108000
2.3569190000	0.0340431000
2.3570320000	0.0338754000
2.3571460000	0.0337077000
2.3572600000	0.0335400000
2.3573740000	0.0333723000
2.3574870000	0.0332046000
2.3574880000	0.1315327000
2.3576010000	0.1313650000
2.3577150000	0.1311973000
2.3578290000	0.1310296000
2.3579420000	0.1308619000
2.3580560000	0.1306942000
2.3581700000	0.1305265000
2.3582830000	0.1303588000
2.3583970000	0.1301911000
2.3585110000	0.1300234000
2.3586240000	0.0315276000
2.3586250000	0.1298557000
2.3587380000	0.1296880000
2.3588520000	0.0311922000
2.3589650000	0.0310245000
2.3590790000	0.0308568000
2.3591930000	0.0306891000
2.3593060000	0.0305214000
2.3594200000	0.0303537000
2.3595340000	0.0301860000
2.3596480000	0.0300183000
2.3596480000	0.1283464000
2.3597620000	0.1281787000
2.3598750000	0.1280110000
2.3599890000	0.1278433000
2.3601030000	0.1276756000
2.3602160000	0.1275079000
2.3603300000	0.1273402000
2.3604440000	0.1271725000
2.3605570000	0.1270048000
2.3606710000	0.1268371000
2.3607850000	0.1266694000
2.3608990000	0.1265017000
2.3610120000	0.1263340000
2.3611260000	0.1261663000
2.3612400000	0.1259986000
2.3613530000	0.1258309000
2.3614670000	0.1256632000
2.3615810000	0.0271674000
2.3615810000	0.1254955000
2.3616940000	0.1253278000
2.3618080000	0.1251601000
2.3619220000	0.1249924000
2.3620360000	0.1248247000
2.3621490000	0.1246570000
2.3622630000	0.1244893000
2.3623770000	0.1243216000
2.3624900000	0.0258258000
2.3626040000	0.0256581000
2.3627180000	0.0254904000
2.3627180000	0.1238185000
2.3628310000	0.1236508000
2.3629450000	0.1234831000
2.3630590000	0.1233154000
2.3631730000	0.1231477000
2.3632860000	0.1229800000
2.3634000000	0.1228123000
2.3635140000	0.1226446000
2.3636270000	0.0241488000
2.3636270000	0.1224769000
2.3637410000	0.1223092000
2.3638550000	0.1221415000
2.3639680000	0.1219738000
2.3640820000	0.0234780000
2.3641960000	0.0233103000
2.3643090000	0.0231426000
2.3644230000	0.0229749000
2.3645370000	0.0228072000
2.3646500000	0.0226395000
2.3646510000	0.1209676000
2.3647640000	0.1207999000
2.3648780000	0.1206322000
2.3649920000	0.1204645000
2.3651050000	0.1202968000
2.3652190000	0.0218010000
2.3652190000	0.1201291000
2.3653330000	0.1199614000
2.3654460000	0.0214656000
2.3655600000	0.0212979000
2.3655600000	0.1196260000
2.3656740000	0.1194583000
2.3657880000	0.1192906000
2.3659010000	0.1191229000
2.3660150000	0.1189552000
2.3661290000	0.1187875000
2.3662420000	0.1186198000
2.3663560000	0.1184521000
2.3664700000	0.1182844000
2.3665830000	0.0197886000
2.3666970000	0.0196209000
2.3666970000	0.1179490000
2.3668110000	0.1177813000
2.3669240000	0.0192855000
2.3670380000	0.0191178000
2.3671520000	0.0189501000
2.3672660000	0.0187824000
2.3673790000	0.0186147000
2.3674930000	0.0184470000
2.3674930000	0.1167751000
2.3676070000	0.1166074000
2.3677210000	0.1164397000
2.3678340000	0.1162720000
2.3679480000	0.0177762000
2.3680610000	0.0176085000
2.3681750000	0.0174408000
2.3681750000	0.1157689000
2.3682890000	0.1156012000
2.3684030000	0.1154335000
2.3685160000	0.1152658000
2.3686300000	0.0167700000
2.3686300000	0.1150981000
2.3687440000	0.1149304000
2.3688580000	0.1147627000
2.3689710000	0.1145950000
2.3690850000	0.0160992000
2.3690850000	0.1144273000
2.3691990000	0.1142596000
2.3693120000	0.1140919000
2.3694260000	0.0155961000
2.3695400000	0.0154284000
2.3696530000	0.0152607000
2.3697670000	0.0150930000
2.3698810000	0.0149253000
2.3699940000	0.0147576000
2.3701080000	0.0145899000
2.3701080000	0.1129180000
2.3702220000	0.1127503000
2.3703360000	0.1125826000
2.3704490000	0.1124149000
2.3705630000	0.1122472000
2.3706770000	0.1120795000
2.3707900000	0.1119118000
2.3709040000	0.0134160000
2.3709040000	0.1117441000
2.3710180000	0.1115764000
2.3711320000	0.1114087000
2.3712450000	0.1112410000
2.3713590000	0.0127452000
2.3713590000	0.1110733000
2.3714730000	0.1109056000
2.3715860000	0.1107379000
2.3717000000	0.1105702000
2.3718140000	0.1104025000
2.3719270000	0.1102348000
2.3720410000	0.1100671000
2.3721550000	0.0115713000
2.3721550000	0.1098994000
2.3722690000	0.1097317000
2.3723820000	0.1095640000
2.3724960000	0.0110682000
2.3724960000	0.1093963000
2.3726100000	0.1092286000
2.3727230000	0.0107328000
2.3728370000	0.0105651000
2.3729510000	0.0103974000
2.3730640000	0.0102297000
2.3731780000	0.0100620000
2.3732920000	0.0098942990
2.3734050000	0.0097265990
2.3734050000	0.0097265990
