#Wavelength	Transmission
3.0132620000	-0.0031611680
3.0140910000	-0.0033587410
3.0149200000	-0.0035563140
3.0157490000	-0.0037538870
3.0165780000	-0.0039514600
3.0174070000	-0.0041490330
3.0182350000	-0.0043466060
3.0190640000	-0.0045441790
3.0198930000	-0.0047417520
3.0207220000	-0.0049393250
3.0215510000	-0.0051368980
3.0223800000	-0.0053344710
3.0232090000	-0.0055320440
3.0240380000	-0.0057296170
3.0248670000	-0.0059271900
3.0256950000	-0.0061247630
3.0265240000	-0.0063223360
3.0265290000	0.1049113000
3.0273580000	0.1047137000
3.0281820000	-0.0067174820
3.0290110000	-0.0069150550
3.0298400000	-0.0071126280
3.0306690000	-0.0073102010
3.0314980000	-0.0075077740
3.0323270000	-0.0077053480
3.0331550000	-0.0079029210
3.0339840000	-0.0081004940
3.0348130000	-0.0082980670
3.0356420000	-0.0084956400
3.0364710000	-0.0086932130
3.0364760000	0.1025404000
3.0373040000	0.1023428000
3.0381330000	0.1021452000
3.0389580000	-0.0092859320
3.0397860000	-0.0094835050
3.0406150000	-0.0096810780
3.0414440000	-0.0098786510
3.0422730000	-0.0100762200
3.0431020000	-0.0102738000
3.0439310000	-0.0104713700
3.0439350000	0.1007622000
3.0447640000	0.1005647000
3.0455930000	0.1003671000
3.0464220000	0.1001695000
3.0472510000	0.0999719400
3.0480800000	0.0997743700
3.0489090000	0.0995768000
3.0497380000	0.0993792300
3.0505670000	0.0991816500
3.0513950000	0.0989840800
3.0522240000	0.0987865100
3.0530490000	-0.0126446700
3.0538780000	-0.0128422500
3.0538820000	0.0983913600
3.0547110000	0.0981937900
3.0555400000	0.0979962100
3.0563690000	0.0977986400
3.0571980000	0.0976010700
3.0580270000	0.0974035000
3.0588550000	0.0972059200
3.0596840000	0.0970083500
3.0605130000	0.0968107800
3.0613370000	-0.0146204000
3.0621660000	-0.0148179800
3.0629950000	-0.0150155500
3.0638240000	-0.0152131200
3.0646530000	-0.0154107000
3.0654820000	-0.0156082700
3.0654860000	0.0956253400
3.0663150000	0.0954277700
3.0671400000	-0.0160034100
3.0679690000	-0.0162009900
3.0687970000	-0.0163985600
3.0696260000	-0.0165961300
3.0704550000	-0.0167937100
3.0712840000	-0.0169912800
3.0712890000	0.0942423300
3.0721180000	0.0940447500
3.0729420000	-0.0173864300
3.0737710000	-0.0175840000
3.0746000000	-0.0177815700
3.0754290000	-0.0179791400
3.0762570000	-0.0181767200
3.0762620000	0.0930568900
3.0770910000	0.0928593200
3.0779200000	0.0926617400
3.0787490000	0.0924641700
3.0795730000	-0.0189670100
3.0804020000	-0.0191645800
3.0812310000	-0.0193621600
3.0820600000	-0.0195597300
3.0828880000	-0.0197573000
3.0837170000	-0.0199548700
3.0845460000	-0.0201524500
3.0853750000	-0.0203500200
3.0853800000	0.0908835900
3.0862090000	0.0906860100
3.0870370000	0.0904884400
3.0878660000	0.0902908700
3.0886950000	0.0900932900
3.0895240000	0.0898957200
3.0903480000	-0.0215354600
3.0911770000	-0.0217330300
3.0920060000	-0.0219306000
3.0928350000	-0.0221281800
3.0936640000	-0.0223257500
3.0944930000	-0.0225233200
3.0953220000	-0.0227209000
3.0961510000	-0.0229184700
3.0969800000	-0.0231160400
3.0978080000	-0.0233136200
3.0986370000	-0.0235111900
3.0994660000	-0.0237087600
3.1002950000	-0.0239063300
3.1011240000	-0.0241039100
3.1019530000	-0.0243014800
3.1027820000	-0.0244990500
3.1036110000	-0.0246966300
3.1044390000	-0.0248942000
3.1052680000	-0.0250917700
3.1052730000	0.0861418300
3.1061020000	0.0859442600
3.1069260000	-0.0254869200
3.1069310000	0.0857466900
3.1077600000	0.0855491100
3.1085880000	0.0853515400
3.1094130000	-0.0260796400
3.1102420000	-0.0262772100
3.1110710000	-0.0264747800
3.1110750000	0.0847588200
3.1119040000	0.0845612500
3.1127330000	0.0843636800
3.1135620000	0.0841661000
3.1143910000	0.0839685300
3.1152150000	-0.0274626500
3.1160440000	-0.0276602200
3.1168730000	-0.0278577900
3.1177020000	-0.0280553700
3.1185310000	-0.0282529400
3.1193590000	-0.0284505100
3.1201880000	-0.0286480900
3.1210170000	-0.0288456600
3.1218460000	-0.0290432300
3.1226750000	-0.0292408100
3.1235040000	-0.0294383800
3.1243330000	-0.0296359500
3.1243370000	0.0815976500
3.1251660000	0.0814000800
3.1259950000	0.0812025100
3.1268240000	0.0810049400
3.1276530000	0.0808073600
3.1284820000	0.0806097900
3.1293110000	0.0804122200
3.1301390000	0.0802146400
3.1309680000	0.0800170700
3.1317970000	0.0798195000
3.1326260000	0.0796219200
3.1334550000	0.0794243500
3.1342840000	0.0792267800
3.1351130000	0.0790292100
3.1359420000	0.0788316300
3.1367710000	0.0786340600
3.1375990000	0.0784364900
3.1384280000	0.0782389100
3.1392570000	0.0780413400
3.1400860000	0.0778437700
3.1409150000	0.0776461900
3.1417440000	0.0774486200
3.1425730000	0.0772510500
3.1434020000	0.0770534800
3.1442310000	0.0768559000
3.1450590000	0.0766583300
3.1458880000	0.0764607600
3.1467170000	0.0762631800
3.1475460000	0.0760656100
3.1483750000	0.0758680400
3.1492040000	0.0756704600
3.1500330000	0.0754728900
3.1508620000	0.0752753200
3.1516910000	0.0750777400
3.1525190000	0.0748801700
3.1533480000	0.0746826000
3.1541770000	0.0744850300
3.1550060000	0.0742874500
3.1558350000	0.0740898800
3.1566640000	0.0738923100
3.1574930000	0.0736947300
3.1583220000	0.0734971600
3.1591500000	0.0732995900
3.1599750000	-0.0381315900
3.1608040000	-0.0383291600
3.1616330000	-0.0385267400
3.1624610000	-0.0387243100
3.1632900000	-0.0389218800
3.1641190000	-0.0391194600
3.1649480000	-0.0393170300
3.1657770000	-0.0395146000
3.1666060000	-0.0397121800
3.1666100000	0.0715214300
3.1674390000	0.0713238600
3.1682680000	0.0711262800
3.1690970000	0.0709287100
3.1699210000	-0.0405024700
3.1699260000	0.0707311400
3.1707550000	0.0705335700
3.1715790000	-0.0408976100
3.1724080000	-0.0410951900
3.1732370000	-0.0412927600
3.1740660000	-0.0414903300
3.1748950000	-0.0416879100
3.1757240000	-0.0418854800
3.1765520000	-0.0420830500
3.1773810000	-0.0422806200
3.1782100000	-0.0424782000
3.1790390000	-0.0426757700
3.1798680000	-0.0428733400
3.1806970000	-0.0430709200
3.1815260000	-0.0432684900
3.1823550000	-0.0434660600
3.1831840000	-0.0436636400
3.1840120000	-0.0438612100
3.1848410000	-0.0440587800
3.1856700000	-0.0442563500
3.1864990000	-0.0444539300
3.1873280000	-0.0446515000
3.1881570000	-0.0448490700
3.1881610000	0.0663845300
3.1889900000	0.0661869600
3.1898190000	0.0659893900
3.1906480000	0.0657918100
3.1914770000	0.0655942400
3.1923060000	0.0653966700
3.1931350000	0.0651990900
3.1939590000	-0.0462320900
3.1947880000	-0.0464296600
3.1956170000	-0.0466272300
3.1964460000	-0.0468248000
3.1972750000	-0.0470223800
3.1972790000	0.0642112300
3.1981080000	0.0640136600
3.1989370000	0.0638160800
3.1997660000	0.0636185100
3.2005950000	0.0634209400
3.2014240000	0.0632233600
3.2014280000	0.1744570000
3.2022480000	-0.0482078200
3.2030770000	-0.0484053900
3.2039060000	-0.0486029600
3.2047350000	-0.0488005300
3.2055630000	-0.0489981100
3.2063920000	-0.0491956800
3.2072210000	-0.0493932500
3.2080500000	-0.0495908300
3.2088790000	-0.0497884000
3.2097080000	-0.0499859700
3.2105370000	-0.0501835500
3.2113660000	-0.0503811200
3.2121940000	-0.0505786900
3.2130230000	-0.0507762600
3.2138520000	-0.0509738400
3.2146810000	-0.0511714100
3.2155100000	-0.0513689800
3.2163390000	-0.0515665600
3.2171680000	-0.0517641300
3.2179970000	-0.0519617000
3.2188260000	-0.0521592800
3.2196540000	-0.0523568500
3.2204830000	-0.0525544200
3.2213120000	-0.0527519900
3.2221410000	-0.0529495700
3.2229700000	-0.0531471400
3.2237990000	-0.0533447100
3.2246280000	-0.0535422900
3.2254570000	-0.0537398600
3.2262860000	-0.0539374300
3.2271140000	-0.0541350100
3.2279430000	-0.0543325800
3.2287720000	-0.0545301500
3.2296010000	-0.0547277200
3.2304300000	-0.0549253000
3.2312590000	-0.0551228700
3.2320880000	-0.0553204400
3.2329170000	-0.0555180200
3.2337450000	-0.0557155900
3.2345740000	-0.0559131600
3.2354030000	-0.0561107400
3.2362320000	-0.0563083100
3.2370610000	-0.0565058800
3.2378900000	-0.0567034500
3.2387190000	-0.0569010300
3.2395480000	-0.0570986000
3.2403770000	-0.0572961700
3.2412050000	-0.0574937500
3.2420340000	-0.0576913200
3.2428630000	-0.0578888900
3.2436920000	-0.0580864700
3.2436970000	0.0531471400
3.2445260000	0.0529495700
3.2453540000	0.0527519900
3.2461830000	0.0525544200
3.2470120000	0.0523568500
3.2478410000	0.0521592800
3.2486700000	0.0519617000
3.2494990000	0.0517641300
3.2503280000	0.0515665600
3.2511570000	0.0513689800
3.2519860000	0.0511714100
3.2528140000	0.0509738400
3.2536430000	0.0507762600
3.2544720000	0.0505786900
3.2553010000	0.0503811200
3.2561300000	0.0501835500
3.2569590000	0.0499859700
3.2577880000	0.0497884000
3.2586170000	0.0495908300
3.2594460000	0.0493932500
3.2602740000	0.0491956800
3.2611030000	0.0489981100
3.2619320000	0.0488005300
3.2627610000	0.0486029600
3.2635900000	0.0484053900
3.2644190000	0.0482078200
3.2652480000	0.0480102400
3.2660770000	0.0478126700
3.2669050000	0.0476151000
3.2677340000	0.0474175200
3.2685630000	0.0472199500
3.2693880000	-0.0642112300
3.2702160000	-0.0644088000
3.2710450000	-0.0646063800
3.2718740000	-0.0648039500
3.2727030000	-0.0650015200
3.2735320000	-0.0651990900
3.2743610000	-0.0653966700
3.2751900000	-0.0655942400
3.2760190000	-0.0657918100
3.2768470000	-0.0659893900
3.2776760000	-0.0661869600
3.2785050000	-0.0663845300
3.2793340000	-0.0665821100
3.2801630000	-0.0667796800
3.2801680000	0.0444539300
3.2809970000	0.0442563500
3.2818250000	0.0440587800
3.2826540000	0.0438612100
3.2834830000	0.0436636400
3.2843120000	0.0434660600
3.2851410000	0.0432684900
3.2859700000	0.0430709200
3.2867990000	0.0428733400
3.2876280000	0.0426757700
3.2884560000	0.0424782000
3.2892850000	0.0422806200
3.2901140000	0.0420830500
3.2901190000	0.1533167000
3.2909480000	0.1531191000
3.2917770000	0.1529215000
3.2926010000	0.0414903300
3.2934300000	0.0412927600
3.2942590000	0.0410951900
3.2950880000	0.0408976100
3.2950920000	0.1521312000
3.2959210000	0.1519336000
3.2967500000	0.1517361000
3.2975790000	0.1515385000
3.2984080000	0.1513409000
3.2992370000	0.1511434000
3.3000650000	0.1509458000
3.3000700000	0.2621794000
3.3008990000	0.2619818000
3.3017280000	0.2617842000
3.3025520000	0.1503531000
3.3033810000	0.1501555000
3.3042100000	0.1499579000
3.3042140000	0.2611915000
3.3050430000	0.2609940000
3.3058720000	0.2607964000
3.3058770000	0.3720300000
3.3067060000	0.3718324000
3.3075350000	0.3716348000
3.3075390000	0.4828684000
3.3083680000	0.4826709000
3.3091970000	0.4824733000
3.3100260000	0.4822757000
3.3108550000	0.4820782000
3.3116840000	0.4818806000
3.3125130000	0.4816830000
3.3133410000	0.4814854000
3.3141700000	0.4812879000
3.3149990000	0.4810903000
3.3158280000	0.4808927000
3.3166570000	0.4806951000
3.3174860000	0.4804976000
3.3183150000	0.4803000000
3.3183190000	0.5915336000
3.3191480000	0.5913360000
3.3199770000	0.5911385000
3.3208060000	0.5909409000
3.3208110000	0.7021745000
3.3216400000	0.7019769000
3.3224680000	0.7017793000
3.3224730000	0.8130129000
3.3233020000	0.8128154000
3.3241310000	0.8126178000
3.3241350000	0.9238514000
3.3249640000	0.9236538000
3.3257930000	0.9234563000
3.3266220000	0.9232587000
3.3266270000	1.0344920000
3.3274560000	1.0342950000
3.3282840000	1.0340970000
3.3291130000	1.0339000000
3.3299380000	0.9224684000
3.3307660000	0.9222708000
3.3315950000	0.9220733000
3.3324200000	0.8106421000
3.3324240000	0.9218757000
3.3332530000	0.9216781000
3.3340820000	0.9214805000
3.3340870000	1.0327140000
3.3349150000	1.0325170000
3.3349200000	1.1437500000
3.3357490000	1.1435530000
3.3365780000	1.1433550000
3.3365820000	1.2545890000
3.3374110000	1.2543910000
3.3382400000	1.2541930000
3.3390690000	1.2539960000
3.3390740000	1.3652300000
3.3390780000	1.4764630000
3.3399070000	1.4762660000
3.3407360000	1.4760680000
3.3415650000	1.4758700000
3.3423940000	1.4756730000
3.3432230000	1.4754750000
3.3432270000	1.5867090000
3.3440560000	1.5865110000
3.3448850000	1.5863140000
3.3457140000	1.5861160000
3.3457190000	1.6973500000
3.3465480000	1.6971520000
3.3465520000	1.8083860000
3.3473810000	1.8081880000
3.3473860000	1.9194220000
3.3482150000	1.9192240000
3.3482190000	2.0304580000
3.3490480000	2.0302600000
3.3498770000	2.0300630000
3.3507060000	2.0298650000
3.3515350000	2.0296680000
3.3523640000	2.0294700000
3.3531920000	2.0292720000
3.3540210000	2.0290750000
3.3540260000	2.1403080000
3.3548550000	2.1401110000
3.3556840000	2.1399130000
3.3565130000	2.1397160000
3.3573410000	2.1395180000
3.3581700000	2.1393210000
3.3581750000	2.2505540000
3.3590040000	2.2503570000
3.3598330000	2.2501590000
3.3606620000	2.2499610000
3.3606660000	2.3611950000
3.3614950000	2.3609980000
3.3615000000	2.4722310000
3.3623290000	2.4720340000
3.3623330000	2.5832670000
3.3631620000	2.5830700000
3.3631670000	2.6943030000
3.3639960000	2.6941060000
3.3648240000	2.6939080000
3.3656530000	2.6937100000
3.3664870000	2.8047460000
3.3673160000	2.8045490000
3.3673200000	2.9157830000
3.3681490000	2.9155850000
3.3681540000	3.0268190000
3.3689830000	3.0266210000
3.3689870000	3.1378550000
3.3698160000	3.1376570000
3.3698250000	3.3601240000
3.3706540000	3.3599270000
3.3714830000	3.3597290000
3.3714880000	3.4709630000
3.3723170000	3.4707650000
3.3731460000	3.4705680000
3.3739740000	3.4703700000
3.3739790000	3.5816040000
3.3748080000	3.5814060000
3.3748130000	3.6926400000
3.3756410000	3.6924420000
3.3764750000	3.8034780000
3.3764800000	3.9147120000
3.3773080000	3.9145140000
3.3773130000	4.0257480000
3.3773180000	4.1369810000
3.3781470000	4.1367840000
3.3781510000	4.2480170000
3.3789800000	4.2478200000
3.3789850000	4.3590530000
3.3798140000	4.3588560000
3.3806470000	4.4698920000
3.3814810000	4.5809280000
3.3814850000	4.6921610000
3.3823230000	4.9144310000
3.3823280000	5.0256650000
3.3831570000	5.0254670000
3.3831610000	5.1367010000
3.3839900000	5.1365030000
3.3839950000	5.2477370000
3.3848240000	5.2475390000
3.3856530000	5.2473420000
3.3856570000	5.3585750000
3.3864860000	5.3583780000
3.3864910000	5.4696110000
3.3873200000	5.4694140000
3.3873240000	5.5806470000
3.3881670000	5.9141510000
3.3881720000	6.0253840000
3.3890050000	6.1364200000
3.3898430000	6.3586900000
3.3898480000	6.4699230000
3.3932370000	8.2488710000
3.3932420000	8.3601040000
3.3949180000	8.8046440000
3.3949230000	8.9158770000
3.3957510000	8.9156800000
3.3957610000	9.1381470000
3.3957650000	9.2493810000
3.3965940000	9.2491830000
3.3966030000	9.4716500000
3.3966080000	9.5828840000
3.3974370000	9.5826860000
3.3982660000	9.5824890000
3.3982700000	9.6937220000
3.3990990000	9.6935250000
3.3991180000	10.1384600000
3.3999470000	10.1382600000
3.3999560000	10.3607300000
3.3999600000	10.4719600000
3.4007890000	10.4717600000
3.4007940000	10.5830000000
3.4008400000	11.6953300000
3.4008490000	11.9178000000
3.4016780000	11.9176000000
3.4017100000	12.6962400000
3.4017200000	12.9187100000
3.4025480000	12.9185100000
3.4025760000	13.5859100000
3.4025850000	13.8083800000
3.4034140000	13.8081800000
3.4034420000	14.4755800000
3.4034460000	14.5868200000
3.4034510000	14.6980500000
3.4042800000	14.6978500000
3.4042940000	15.0315500000
3.4042980000	15.1427900000
3.4043030000	15.2540200000
3.4051320000	15.2538200000
3.4051370000	15.3650600000
3.4068170000	15.9208300000
3.4068220000	16.0320600000
3.4076740000	16.5880300000
3.4076780000	16.6992700000
3.4085350000	17.3664700000
3.4085440000	17.5889400000
3.4085490000	17.7001700000
3.4086320000	19.7023800000
3.4094380000	19.1460100000
3.4094560000	19.5909400000
3.4094610000	19.7021800000
3.4102900000	19.7019800000
3.4102940000	19.8132100000
3.4102990000	19.9244500000
3.4111280000	19.9242500000
3.4111320000	20.0354800000
3.4111830000	21.2590500000
3.4111880000	21.3702900000
3.4111920000	21.4815200000
3.4120580000	22.3711900000
3.4120670000	22.5936600000
3.4120720000	22.7048900000
3.4120760000	22.8161300000
3.4129050000	22.8159300000
3.4129420000	23.7058000000
3.4129610000	24.1507300000
3.4129700000	24.3732000000
3.4129740000	24.4844300000
3.4138030000	24.4842400000
3.4138080000	24.5954700000
3.4146650000	25.2626700000
3.4146780000	25.5963700000
3.4146830000	25.7076100000
3.4146880000	25.8188400000
3.4155350000	26.2635800000
3.4155400000	26.3748100000
3.4155490000	26.5972800000
3.4155860000	27.4871500000
3.4155950000	27.7096200000
3.4164240000	27.7094200000
3.4164280000	27.8206500000
3.4164610000	28.5992900000
3.4164740000	28.9329900000
3.4164790000	29.0442200000
3.4164840000	29.1554500000
3.4165070000	29.7116200000
3.4165110000	29.8228600000
3.4173400000	29.8226600000
3.4173450000	29.9338900000
3.4181740000	29.9336900000
3.4181780000	30.0449300000
3.4181830000	30.1561600000
3.4182890000	32.7145300000
3.4183070000	33.1594700000
3.4183120000	33.2707000000
3.4191410000	33.2705100000
3.4191920000	34.4940700000
3.4192150000	35.0502400000
3.4192240000	35.2727100000
3.4200530000	35.2725100000
3.4200900000	36.1623800000
3.4201080000	36.6073200000
3.4201170000	36.8297800000
3.4209460000	36.8295900000
3.4209970000	38.0531600000
3.4210010000	38.1643900000
3.4218300000	38.1641900000
3.4218760000	39.2765300000
3.4219000000	39.8327000000
3.4219090000	40.0551600000
3.4227380000	40.0549600000
3.4227560000	40.4999000000
3.4235850000	40.4997000000
3.4236400000	41.8345000000
3.4236680000	42.5019100000
3.4236820000	42.8356100000
3.4236910000	43.0580700000
3.4236960000	43.1693100000
3.4245240000	43.1691100000
3.4245890000	44.7263800000
3.4246070000	45.1713200000
3.4246120000	45.2825500000
3.4254410000	45.2823500000
3.4254960000	46.6171500000
3.4255240000	47.2845600000
3.4255380000	47.6182600000
3.4255420000	47.7294900000
3.4263710000	47.7292900000
3.4264270000	49.0641000000
3.4264450000	49.5090300000
3.4264500000	49.6202600000
3.4272790000	49.6200700000
3.4273430000	51.1773400000
3.4273710000	51.8447400000
3.4273890000	52.2896700000
3.4273940000	52.4009100000
3.4282230000	52.4007100000
3.4282640000	53.4018100000
3.4282690000	53.5130500000
3.4290980000	53.5128500000
3.4291620000	55.0701200000
3.4299910000	55.0699200000
3.4300510000	56.5159600000
3.4300830000	57.2945900000
3.4300920000	57.5170600000
3.4309210000	57.5168600000
3.4309810000	58.9629000000
3.4309950000	59.2966000000
3.4310000000	59.4078300000
3.4318290000	59.4076400000
3.4318790000	60.6312100000
3.4319070000	61.2986100000
3.4319210000	61.6323100000
3.4319250000	61.7435400000
3.4327540000	61.7433400000
3.4328100000	63.0781500000
3.4328330000	63.6343200000
3.4328370000	63.7455500000
3.4336660000	63.7453500000
3.4337210000	65.0801600000
3.4337490000	65.7475600000
3.4337630000	66.0812600000
3.4337720000	66.3037300000
3.4346010000	66.3035300000
3.4346520000	67.5271000000
3.4346610000	67.7495600000
3.4346660000	67.8608000000
3.4354950000	67.8606000000
3.4355540000	69.3066400000
3.4355730000	69.7515700000
3.4364020000	69.7513700000
3.4364390000	70.6412400000
3.4364430000	70.7524800000
3.4364480000	70.8637100000
3.4372770000	70.8635100000
3.4373040000	71.5309100000
3.4373180000	71.8646200000
3.4381470000	71.8644200000
3.4381980000	73.0879900000
3.4382120000	73.4216900000
3.4382160000	73.5329200000
3.4390450000	73.5327200000
3.4390870000	74.5338300000
3.4391050000	74.9787600000
3.4399340000	74.9785600000
3.4399800000	76.0909000000
3.4399940000	76.4246000000
3.4399990000	76.5358300000
3.4408270000	76.5356400000
3.4408550000	77.2030400000
3.4408640000	77.4255100000
3.4408690000	77.5367400000
3.4416980000	77.5365400000
3.4417390000	78.5376400000
3.4417480000	78.7601100000
3.4425770000	78.7599100000
3.4426140000	79.6497800000
3.4426280000	79.9834800000
3.4434570000	79.9832900000
3.4434750000	80.4282200000
3.4443040000	80.4280200000
3.4443460000	81.4291200000
3.4451750000	81.4289300000
3.4452020000	82.0963300000
3.4452070000	82.2075600000
3.4460360000	82.2073600000
3.4460590000	82.7635300000
3.4460730000	83.0972300000
3.4469020000	83.0970400000
3.4469200000	83.5419700000
3.4469250000	83.6532000000
3.4477540000	83.6530100000
3.4477720000	84.0979400000
3.4477770000	84.2091700000
3.4486050000	84.2089800000
3.4486240000	84.6539100000
3.4486290000	84.7651400000
3.4486330000	84.8763800000
3.4494620000	84.8761800000
3.4494800000	85.3211200000
3.4494850000	85.4323500000
3.4503140000	85.4321500000
3.4503280000	85.7658500000
3.4503320000	85.8770900000
3.4511610000	85.8768900000
3.4511800000	86.3218200000
3.4520090000	86.3216300000
3.4520220000	86.6553300000
3.4520270000	86.7665600000
3.4520320000	86.8777900000
3.4528610000	86.8776000000
3.4528650000	86.9888300000
3.4528700000	87.1000600000
3.4536990000	87.0998700000
3.4537030000	87.2111000000
3.4545320000	87.2109000000
3.4553610000	87.2107000000
3.4553660000	87.3219400000
3.4561950000	87.3217400000
3.4561990000	87.4329700000
3.4562040000	87.5442100000
3.4570330000	87.5440100000
3.4570420000	87.7664800000
3.4570460000	87.8777100000
3.4578750000	87.8775100000
3.4578800000	87.9887500000
3.4587090000	87.9885500000
3.4587130000	88.0997800000
3.4595420000	88.0995800000
3.4595470000	88.2108200000
3.4603760000	88.2106200000
3.4603800000	88.3218500000
3.4603850000	88.4330900000
3.4612140000	88.4328900000
3.4620430000	88.4326900000
3.4620470000	88.5439300000
3.4628760000	88.5437300000
3.4637050000	88.5435300000
3.4645340000	88.5433300000
3.4653580000	88.4319000000
3.4661870000	88.4317000000
3.4670160000	88.4315100000
3.4670210000	88.5427400000
3.4678500000	88.5425400000
3.4678540000	88.6537800000
3.4686830000	88.6535800000
3.4695120000	88.6533800000
3.4703410000	88.6531800000
3.4711700000	88.6529900000
3.4711740000	88.7642200000
3.4720030000	88.7640200000
3.4728320000	88.7638300000
3.4736560000	88.6523900000
3.4744850000	88.6522000000
3.4753140000	88.6520000000
3.4753230000	88.8744700000
3.4761520000	88.8742700000
3.4761570000	88.9855000000
3.4769860000	88.9853000000
3.4769900000	89.0965400000
3.4778190000	89.0963400000
3.4786480000	89.0961400000
3.4794770000	89.0959500000
3.4803060000	89.0957500000
3.4811350000	89.0955500000
3.4811390000	89.2067800000
3.4819680000	89.2065900000
3.4819730000	89.3178200000
3.4828020000	89.3176200000
3.4828060000	89.4288600000
3.4836350000	89.4286600000
3.4844640000	89.4284600000
3.4852930000	89.4282600000
3.4861170000	89.3168300000
3.4869460000	89.3166300000
3.4869510000	89.4278700000
3.4877800000	89.4276700000
3.4886090000	89.4274700000
3.4886130000	89.5387100000
3.4894420000	89.5385100000
3.4894470000	89.6497400000
3.4902760000	89.6495400000
3.4902800000	89.7607800000
3.4911090000	89.7605800000
3.4919380000	89.7603800000
3.4927620000	89.6489500000
3.4927670000	89.7601900000
3.4935960000	89.7599900000
3.4936000000	89.8712200000
3.4936050000	89.9824600000
3.4944340000	89.9822600000
3.4944430000	90.2047300000
3.4952720000	90.2045300000
3.4952770000	90.3157600000
3.4961050000	90.3155600000
3.4969300000	90.2041300000
3.4977490000	89.9814700000
3.4977540000	90.0927000000
3.4977590000	90.2039300000
3.4985690000	89.7588000000
3.4993980000	89.7586100000
3.5002220000	89.6471700000
3.5010460000	89.5357400000
3.5018710000	89.4243100000
3.5018800000	89.6467800000
3.5018850000	89.7580100000
3.5026810000	88.9791800000
3.5035100000	88.9789800000
3.5043340000	88.8675500000
3.5051630000	88.8673500000
3.5059920000	88.8671600000
3.5068120000	88.6444900000
3.5076360000	88.5330600000
3.5084600000	88.4216300000
3.5092850000	88.3102000000
3.5101090000	88.1987700000
3.5109330000	88.0873400000
3.5117620000	88.0871400000
3.5125860000	87.9757100000
3.5134150000	87.9755100000
3.5142350000	87.7528400000
3.5150640000	87.7526500000
3.5158880000	87.6412200000
3.5167120000	87.5297800000
3.5167170000	87.6410200000
3.5175320000	87.3071200000
3.5175370000	87.4183500000
3.5183520000	87.0844500000
3.5191810000	87.0842600000
3.5200090000	87.0840600000
3.5208340000	86.9726300000
3.5216630000	86.9724300000
3.5216670000	87.0836600000
3.5224820000	86.7497700000
3.5233070000	86.6383300000
3.5241310000	86.5269000000
3.5249550000	86.4154700000
3.5257790000	86.3040400000
3.5266080000	86.3038400000
3.5274370000	86.3036500000
3.5282610000	86.1922100000
3.5290860000	86.0807800000
3.5299100000	85.9693500000
3.5307390000	85.9691500000
3.5315680000	85.9689600000
3.5323920000	85.8575300000
3.5332160000	85.7460900000
3.5332210000	85.8573300000
3.5340360000	85.5234300000
3.5348600000	85.4120000000
3.5356890000	85.4118000000
3.5365180000	85.4116000000
3.5373420000	85.3001700000
3.5381710000	85.2999800000
3.5389910000	85.0773100000
3.5398200000	85.0771100000
3.5406490000	85.0769200000
3.5414730000	84.9654800000
3.5423020000	84.9652900000
3.5431260000	84.8538600000
3.5439550000	84.8536600000
3.5447840000	84.8534600000
3.5447880000	84.9646900000
3.5456170000	84.9645000000
3.5464460000	84.9643000000
3.5472700000	84.8528700000
3.5480990000	84.8526700000
3.5489280000	84.8524700000
3.5497570000	84.8522700000
3.5497620000	84.9635100000
3.5505910000	84.9633100000
3.5514190000	84.9631100000
3.5514240000	85.0743500000
3.5522530000	85.0741500000
3.5530820000	85.0739500000
3.5539010000	84.8512900000
3.5547300000	84.8510900000
3.5555590000	84.8508900000
3.5563880000	84.8506900000
3.5572170000	84.8505000000
3.5572220000	84.9617300000
3.5580510000	84.9615300000
3.5580600000	85.1840000000
3.5580640000	85.2952300000
3.5588930000	85.2950400000
3.5588980000	85.4062700000
3.5597270000	85.4060700000
3.5605560000	85.4058700000
3.5605600000	85.5171100000
3.5613890000	85.5169100000
3.5622180000	85.5167100000
3.5630470000	85.5165200000
3.5638760000	85.5163200000
3.5638800000	85.6275500000
3.5647090000	85.6273500000
3.5655380000	85.6271600000
3.5655430000	85.7383900000
3.5663720000	85.7381900000
3.5672010000	85.7379900000
3.5672050000	85.8492300000
3.5680340000	85.8490300000
3.5688630000	85.8488300000
3.5696920000	85.8486400000
3.5696960000	85.9598700000
3.5705250000	85.9596700000
3.5705300000	86.0709100000
3.5713590000	86.0707100000
3.5713630000	86.1819400000
3.5721920000	86.1817400000
3.5721970000	86.2929800000
3.5730260000	86.2927800000
3.5730300000	86.4040100000
3.5738590000	86.4038200000
3.5738640000	86.5150500000
3.5746930000	86.5148500000
3.5746970000	86.6260900000
3.5747020000	86.7373200000
3.5755310000	86.7371200000
3.5755350000	86.8483500000
3.5763640000	86.8481600000
3.5771930000	86.8479600000
3.5780220000	86.8477600000
3.5780270000	86.9590000000
3.5788560000	86.9588000000
3.5796840000	86.9586000000
3.5796890000	87.0698300000
3.5805180000	87.0696400000
3.5813470000	87.0694400000
3.5821760000	87.0692400000
3.5821800000	87.1804800000
3.5821850000	87.2917100000
3.5830140000	87.2915100000
3.5830180000	87.4027400000
3.5830230000	87.5139800000
3.5838520000	87.5137800000
3.5838570000	87.6250100000
3.5846850000	87.6248200000
3.5855140000	87.6246200000
3.5863390000	87.5131900000
3.5871680000	87.5129900000
3.5879960000	87.5127900000
3.5880010000	87.6240300000
3.5888300000	87.6238300000
3.5896590000	87.6236300000
3.5896630000	87.7348600000
3.5904920000	87.7346700000
3.5904970000	87.8459000000
3.5905010000	87.9571300000
3.5913300000	87.9569400000
3.5913350000	88.0681700000
3.5913400000	88.1794000000
3.5921680000	88.1792100000
3.5929970000	88.1790100000
3.5938260000	88.1788100000
3.5938310000	88.2900500000
3.5946600000	88.2898500000
3.5946640000	88.4010800000
3.5954930000	88.4008800000
3.5954980000	88.5121200000
3.5963270000	88.5119200000
3.5963310000	88.6231500000
3.5971600000	88.6229600000
3.5971650000	88.7341900000
3.5979940000	88.7339900000
3.5979980000	88.8452300000
3.5988270000	88.8450300000
3.5988320000	88.9562600000
3.5988360000	89.0674900000
3.5996650000	89.0673000000
3.6004940000	89.0671000000
3.6013230000	89.0669000000
3.6021470000	88.9554700000
3.6029760000	88.9552700000
3.6038010000	88.8438400000
3.6046250000	88.7324100000
3.6046290000	88.8436400000
3.6054580000	88.8434500000
3.6054630000	88.9546800000
3.6062920000	88.9544800000
3.6063010000	89.1769500000
3.6063060000	89.2881800000
3.6071340000	89.2879900000
3.6071390000	89.3992200000
3.6079680000	89.3990200000
3.6079820000	89.7327200000
3.6088110000	89.7325300000
3.6096400000	89.7323300000
3.6104680000	89.7321300000
3.6112970000	89.7319300000
3.6113020000	89.8431700000
3.6121310000	89.8429700000
3.6129600000	89.8427700000
3.6129640000	89.9540100000
3.6137930000	89.9538100000
3.6146220000	89.9536100000
3.6154510000	89.9534100000
3.6162800000	89.9532100000
3.6171090000	89.9530200000
3.6179380000	89.9528200000
3.6187670000	89.9526200000
3.6195950000	89.9524200000
3.6204200000	89.8409900000
3.6212490000	89.8408000000
3.6212530000	89.9520300000
3.6220820000	89.9518300000
3.6220870000	90.0630700000
3.6229160000	90.0628700000
3.6237440000	90.0626700000
3.6237490000	90.1739000000
3.6245780000	90.1737100000
3.6245830000	90.2849400000
3.6245870000	90.3961700000
3.6254160000	90.3959800000
3.6262400000	90.2845400000
3.6270690000	90.2843500000
3.6278980000	90.2841500000
3.6287270000	90.2839500000
3.6287320000	90.3951900000
3.6295600000	90.3949900000
3.6303890000	90.3947900000
3.6303940000	90.5060200000
3.6312230000	90.5058300000
3.6320520000	90.5056300000
3.6320560000	90.6168600000
3.6320610000	90.7281000000
3.6328900000	90.7279000000
3.6337190000	90.7277000000
3.6345480000	90.7275000000
3.6353720000	90.6160700000
3.6353770000	90.7273100000
3.6362050000	90.7271100000
3.6370340000	90.7269100000
3.6370390000	90.8381400000
3.6378680000	90.8379500000
3.6378720000	90.9491800000
3.6387010000	90.9489800000
3.6395300000	90.9487900000
3.6403540000	90.8373500000
3.6403590000	90.9485900000
3.6411880000	90.9483900000
3.6420170000	90.9481900000
3.6428460000	90.9479900000
3.6428500000	91.0592300000
3.6436790000	91.0590300000
3.6445080000	91.0588300000
3.6453370000	91.0586400000
3.6461660000	91.0584400000
3.6469900000	90.9470100000
3.6469950000	91.0582400000
3.6478240000	91.0580400000
3.6486520000	91.0578500000
3.6494810000	91.0576500000
3.6494860000	91.1688800000
3.6503150000	91.1686800000
3.6503190000	91.2799200000
3.6511480000	91.2797200000
3.6511530000	91.3909500000
3.6519820000	91.3907600000
3.6528110000	91.3905600000
3.6536400000	91.3903600000
3.6544640000	91.2789300000
3.6552930000	91.2787300000
3.6561220000	91.2785300000
3.6569510000	91.2783400000
3.6569550000	91.3895700000
3.6577840000	91.3893700000
3.6586130000	91.3891800000
3.6594420000	91.3889800000
3.6602710000	91.3887800000
3.6610950000	91.2773500000
3.6619240000	91.2771500000
3.6627530000	91.2769500000
3.6635820000	91.2767600000
3.6644110000	91.2765600000
3.6644150000	91.3877900000
3.6652440000	91.3875900000
3.6660680000	91.2761600000
3.6668970000	91.2759700000
3.6677210000	91.1645300000
3.6677260000	91.2757700000
3.6685550000	91.2755700000
3.6693840000	91.2753700000
3.6702130000	91.2751800000
3.6710420000	91.2749800000
3.6718700000	91.2747800000
3.6726990000	91.2745800000
3.6727040000	91.3858200000
3.6735330000	91.3856200000
3.6743620000	91.3854200000
3.6751910000	91.3852200000
3.6760200000	91.3850300000
3.6768440000	91.2736000000
3.6776680000	91.1621600000
3.6776730000	91.2734000000
3.6784880000	90.9395000000
3.6793170000	90.9393000000
3.6801360000	90.7166400000
3.6809560000	90.4939700000
3.6817850000	90.4937700000
3.6826140000	90.4935800000
3.6834430000	90.4933800000
3.6842710000	90.4931800000
3.6851000000	90.4929800000
3.6859290000	90.4927900000
3.6867580000	90.4925900000
3.6875870000	90.4923900000
3.6884160000	90.4921900000
3.6892400000	90.3807600000
3.6892450000	90.4920000000
3.6900740000	90.4918000000
3.6909030000	90.4916000000
3.6917310000	90.4914000000
3.6925600000	90.4912100000
3.6925650000	90.6024400000
3.6933800000	90.2685400000
3.6942040000	90.1571100000
3.6950330000	90.1569100000
3.6958570000	90.0454800000
3.6966860000	90.0452800000
3.6975110000	89.9338500000
3.6975150000	90.0450900000
3.6983440000	90.0448900000
3.6991730000	90.0446900000
3.7000020000	90.0444900000
3.7000060000	90.1557300000
3.7008350000	90.1555300000
3.7008400000	90.2667600000
3.7016690000	90.2665700000
3.7016730000	90.3778000000
3.7025020000	90.3776000000
3.7025070000	90.4888400000
3.7025120000	90.6000700000
3.7033310000	90.3774000000
3.7041550000	90.2659700000
3.7049660000	89.8208400000
3.7099390000	89.8196600000
3.7107680000	89.8194600000
3.7115970000	89.8192600000
3.7124260000	89.8190600000
3.7124310000	89.9303000000
3.7124350000	90.0415300000
3.7132320000	89.2627000000
3.7132360000	89.3739300000
3.7140510000	89.0400300000
3.7148760000	88.9286000000
3.7157050000	88.9284000000
3.7165290000	88.8169700000
3.7173580000	88.8167700000
3.7173620000	88.9280100000
3.7181910000	88.9278100000
3.7190200000	88.9276100000
3.7198490000	88.9274200000
3.7198540000	89.0386500000
3.7206640000	88.5935200000
3.7214840000	88.3708500000
3.7223080000	88.2594200000
3.7231320000	88.1479900000
3.7239610000	88.1477900000
3.7239660000	88.2590300000
3.7247950000	88.2588300000
3.7256240000	88.2586300000
3.7256330000	88.4811000000
3.7256370000	88.5923300000
3.7264430000	88.0359700000
3.7272670000	87.9245400000
3.7280960000	87.9243400000
3.7289250000	87.9241400000
3.7297540000	87.9239400000
3.7305830000	87.9237400000
3.7314120000	87.9235500000
3.7322410000	87.9233500000
3.7330700000	87.9231500000
3.7338990000	87.9229500000
3.7339030000	88.0341900000
3.7347320000	88.0339900000
3.7347370000	88.1452200000
3.7355660000	88.1450300000
3.7363940000	88.1448300000
3.7372190000	88.0334000000
3.7380430000	87.9219700000
3.7388670000	87.8105400000
3.7396960000	87.8103400000
3.7405200000	87.6989100000
3.7405250000	87.8101400000
3.7413540000	87.8099400000
3.7413580000	87.9211800000
3.7421870000	87.9209800000
3.7430160000	87.9207800000
3.7438450000	87.9205800000
3.7446740000	87.9203900000
3.7455030000	87.9201900000
3.7463320000	87.9199900000
3.7471610000	87.9197900000
3.7479900000	87.9196000000
3.7488180000	87.9194000000
3.7488230000	88.0306300000
3.7496520000	88.0304300000
3.7496570000	88.1416700000
3.7504850000	88.1414700000
3.7513140000	88.1412700000
3.7513190000	88.2525100000
3.7521480000	88.2523100000
3.7529720000	88.1408800000
3.7537960000	88.0294500000
3.7546250000	88.0292500000
3.7554540000	88.0290500000
3.7562830000	88.0288500000
3.7571120000	88.0286600000
3.7579360000	87.9172200000
3.7587650000	87.9170300000
3.7595940000	87.9168300000
3.7604230000	87.9166300000
3.7604270000	88.0278700000
3.7612560000	88.0276700000
3.7620850000	88.0274700000
3.7629140000	88.0272700000
3.7629190000	88.1385100000
3.7629230000	88.2497400000
3.7637520000	88.2495400000
3.7645810000	88.2493500000
3.7645860000	88.3605800000
3.7654150000	88.3603800000
3.7654190000	88.4716100000
3.7662480000	88.4714200000
3.7662530000	88.5826500000
3.7670820000	88.5824500000
3.7670910000	88.8049200000
3.7679200000	88.8047200000
3.7679240000	88.9159600000
3.7679290000	89.0271900000
3.7687580000	89.0269900000
3.7695870000	89.0267900000
3.7704160000	89.0266000000
3.7712440000	89.0264000000
3.7712490000	89.1376300000
3.7720780000	89.1374400000
3.7720830000	89.2486700000
3.7729110000	89.2484700000
3.7729160000	89.3597100000
3.7737450000	89.3595100000
3.7737500000	89.4707400000
3.7745780000	89.4705400000
3.7745830000	89.5817800000
3.7754120000	89.5815800000
3.7762360000	89.4701500000
3.7770510000	89.1362500000
3.7778800000	89.1360500000
3.7787040000	89.0246200000
3.7795330000	89.0244200000
3.7803620000	89.0242300000
3.7811910000	89.0240300000
3.7820200000	89.0238300000
3.7820250000	89.1350600000
3.7828530000	89.1348700000
3.7828670000	89.4685700000
3.7836960000	89.4683700000
3.7837050000	89.6908400000
3.7845340000	89.6906400000
3.7853630000	89.6904400000
3.7853680000	89.8016800000
3.7861830000	89.4677800000
3.7870070000	89.3563500000
3.7878310000	89.2449200000
3.7886600000	89.2447200000
3.7894800000	89.0220500000
3.7894850000	89.1332900000
3.7903130000	89.1330900000
3.7911420000	89.1328900000
3.7919710000	89.1326900000
3.7928000000	89.1325000000
3.7928050000	89.2437300000
3.7936340000	89.2435300000
3.7944580000	89.1321000000
3.7952870000	89.1319000000
3.7952910000	89.2431400000
3.7961200000	89.2429400000
3.7969490000	89.2427400000
3.7977780000	89.2425400000
3.7986070000	89.2423500000
3.7994360000	89.2421500000
3.8002650000	89.2419500000
3.8010940000	89.2417500000
3.8019220000	89.2415600000
3.8027510000	89.2413600000
3.8035800000	89.2411600000
3.8035850000	89.3524000000
3.8044140000	89.3522000000
3.8052430000	89.3520000000
3.8060710000	89.3518000000
3.8060810000	89.5742700000
3.8060850000	89.6855000000
3.8069140000	89.6853100000
3.8077430000	89.6851100000
3.8085720000	89.6849100000
3.8085770000	89.7961400000
3.8094050000	89.7959500000
3.8102340000	89.7957500000
3.8102390000	89.9069800000
3.8110680000	89.9067900000
3.8118970000	89.9065900000
3.8127260000	89.9063900000
3.8135540000	89.9061900000
3.8135590000	90.0174300000
3.8143880000	90.0172300000
3.8152170000	90.0170300000
3.8160460000	90.0168300000
3.8168750000	90.0166400000
3.8176990000	89.9052000000
3.8185230000	89.7937700000
3.8193520000	89.7935800000
3.8201810000	89.7933800000
3.8201860000	89.9046100000
3.8210140000	89.9044100000
3.8210190000	90.0156500000
3.8218480000	90.0154500000
3.8218520000	90.1266800000
3.8218570000	90.2379200000
3.8226860000	90.2377200000
3.8226910000	90.3489500000
3.8235190000	90.3487600000
3.8235290000	90.5712200000
3.8235330000	90.6824600000
3.8243620000	90.6822600000
3.8243670000	90.7934900000
3.8251960000	90.7933000000
3.8260250000	90.7931000000
3.8268530000	90.7929000000
3.8276780000	90.6814700000
3.8284970000	90.4588000000
3.8293260000	90.4586100000
3.8301550000	90.4584100000
3.8309790000	90.3469800000
3.8318080000	90.3467800000
3.8318130000	90.4580100000
3.8326280000	90.1241200000
3.8334570000	90.1239200000
3.8342810000	90.0124900000
3.8351100000	90.0122900000
3.8359390000	90.0120900000
3.8367540000	89.6781900000
3.8375830000	89.6780000000
3.8384120000	89.6778000000
3.8384160000	89.7890300000
3.8392450000	89.7888300000
3.8392500000	89.9000700000
3.8400790000	89.8998700000
3.8409080000	89.8996700000
3.8409120000	90.0109100000
3.8417410000	90.0107100000
3.8425700000	90.0105100000
3.8433990000	90.0103100000
3.8442280000	90.0101200000
3.8450430000	89.6762200000
3.8458670000	89.5647900000
3.8466960000	89.5645900000
3.8467010000	89.6758200000
3.8475290000	89.6756200000
3.8475340000	89.7868600000
3.8475430000	90.0093300000
3.8508590000	90.0085400000
3.8508630000	90.1197700000
3.8541650000	89.7852800000
3.8549940000	89.7850800000
3.8558230000	89.7848800000
3.8566520000	89.7846800000
3.8574810000	89.7844900000
3.8574850000	89.8957200000
3.8574900000	90.0069500000
3.8583190000	90.0067600000
3.8583230000	90.1179900000
3.8591520000	90.1177900000
3.8591570000	90.2290300000
3.8599860000	90.2288300000
3.8608150000	90.2286300000
3.8608190000	90.3398700000
3.8616480000	90.3396700000
3.8624720000	90.2282400000
3.8641260000	90.1166100000
3.8649540000	90.1164100000
3.8657700000	89.7825100000
3.8665980000	89.7823100000
3.8674270000	89.7821200000
3.8682560000	89.7819200000
3.8682700000	90.1156200000
3.8690990000	90.1154200000
3.8691040000	90.2266600000
3.8699320000	90.2264600000
3.8699370000	90.3376900000
3.8707660000	90.3374900000
3.8715950000	90.3373000000
3.8757120000	89.6689100000
3.8765400000	89.6687100000
3.8765450000	89.7799400000
3.8765500000	89.8911800000
3.8773790000	89.8909800000
3.8773920000	90.2246800000
3.8773970000	90.3359100000
3.8782260000	90.3357200000
3.8782300000	90.4469500000
3.8790590000	90.4467500000
3.8790640000	90.5579900000
3.8798930000	90.5577900000
3.8798970000	90.6690200000
3.8807130000	90.3351200000
3.8807170000	90.4463600000
3.8815320000	90.1124600000
3.8823610000	90.1122600000
3.8831900000	90.1120600000
3.8840190000	90.1118700000
3.8848480000	90.1116700000
3.8856770000	90.1114700000
3.8856810000	90.2227000000
3.8865100000	90.2225100000
3.8865150000	90.3337400000
3.8873440000	90.3335400000
3.8881720000	90.3333500000
3.8890010000	90.3331500000
3.8898300000	90.3329500000
3.8898350000	90.4441800000
3.8906640000	90.4439900000
3.8906680000	90.5552200000
3.8914970000	90.5550200000
3.8923260000	90.5548200000
3.8923310000	90.6660600000
3.8931600000	90.6658600000
3.8939840000	90.5544300000
3.8948080000	90.4430000000
3.8956320000	90.3315700000
3.8964610000	90.3313700000
3.8972900000	90.3311700000
3.8972950000	90.4424100000
3.8981240000	90.4422100000
3.8981280000	90.5534400000
3.8981330000	90.6646800000
3.8989620000	90.6644800000
3.8989660000	90.7757100000
3.8997950000	90.7755100000
3.8998000000	90.8867500000
3.9006290000	90.8865500000
3.9006330000	90.9977800000
3.9014620000	90.9975900000
3.9022870000	90.8861500000
3.9031150000	90.8859600000
3.9039400000	90.7745300000
3.9047690000	90.7743300000
3.9055980000	90.7741300000
3.9056020000	90.8853600000
3.9064310000	90.8851700000
3.9072600000	90.8849700000
3.9072640000	90.9962000000
3.9080930000	90.9960100000
3.9089220000	90.9958100000
3.9089270000	91.1070400000
3.9097560000	91.1068400000
3.9105800000	90.9954100000
3.9114090000	90.9952100000
3.9122330000	90.8837800000
3.9130620000	90.8835900000
3.9130670000	90.9948200000
3.9138960000	90.9946200000
3.9139050000	91.2170900000
3.9147340000	91.2168900000
3.9147430000	91.4393600000
3.9155720000	91.4391600000
3.9155760000	91.5503900000
3.9164050000	91.5502000000
3.9164100000	91.6614300000
3.9172390000	91.6612300000
3.9180630000	91.5498000000
3.9188870000	91.4383700000
3.9197160000	91.4381700000
3.9205450000	91.4379800000
3.9213690000	91.3265400000
3.9221980000	91.3263500000
3.9230270000	91.3261500000
3.9238560000	91.3259500000
3.9238610000	91.4371900000
3.9246900000	91.4369900000
3.9246940000	91.5482200000
3.9255230000	91.5480200000
3.9263520000	91.5478300000
3.9271810000	91.5476300000
3.9271850000	91.6588600000
3.9280140000	91.6586600000
3.9288390000	91.5472300000
3.9288430000	91.6584700000
3.9296580000	91.3245700000
3.9304870000	91.3243700000
3.9313160000	91.3241700000
3.9321450000	91.3239800000
3.9329690000	91.2125500000
3.9337980000	91.2123500000
3.9338030000	91.3235800000
3.9346320000	91.3233800000
3.9354600000	91.3231900000
3.9362890000	91.3229900000
3.9371180000	91.3227900000
3.9379420000	91.2113600000
3.9379470000	91.3225900000
3.9387620000	90.9886900000
3.9395910000	90.9885000000
3.9404110000	90.7658300000
3.9412400000	90.7656300000
3.9420680000	90.7654400000
3.9420730000	90.8766700000
3.9429020000	90.8764700000
3.9429070000	90.9877100000
3.9437350000	90.9875100000
3.9445640000	90.9873100000
3.9453840000	90.7646500000
3.9462080000	90.6532200000
3.9470330000	90.5417800000
3.9478570000	90.4303500000
3.9486860000	90.4301600000
3.9495150000	90.4299600000
3.9503430000	90.4297600000
3.9511720000	90.4295600000
3.9520010000	90.4293700000
3.9528250000	90.3179300000
3.9536500000	90.2065000000
3.9544790000	90.2063100000
3.9553080000	90.2061100000
3.9553120000	90.3173400000
3.9561410000	90.3171400000
3.9561460000	90.4283800000
3.9569750000	90.4281800000
3.9578030000	90.4279800000
3.9578080000	90.5392200000
3.9586280000	90.3165500000
3.9594340000	89.7601900000
3.9602620000	89.7599900000
3.9610910000	89.7597900000
3.9610960000	89.8710200000
3.9611010000	89.9822600000
3.9619290000	89.9820600000
3.9627580000	89.9818600000
3.9635870000	89.9816700000
3.9644160000	89.9814700000
3.9652450000	89.9812700000
3.9660740000	89.9810700000
3.9668930000	89.7584100000
3.9669030000	89.9808700000
3.9669070000	90.0921100000
3.9677360000	90.0919100000
3.9685280000	89.2018400000
3.9693570000	89.2016500000
3.9701810000	89.0902200000
3.9701860000	89.2014500000
3.9710150000	89.2012500000
3.9718390000	89.0898200000
3.9726630000	88.9783900000
3.9734920000	88.9781900000
3.9734970000	89.0894300000
3.9735020000	89.2006600000
3.9743070000	88.6442900000
3.9751360000	88.6441000000
3.9759560000	88.4214300000
3.9759610000	88.5326600000
3.9767760000	88.1987700000
3.9776000000	88.0873400000
3.9784240000	87.9759000000
3.9792480000	87.8644700000
3.9800770000	87.8642800000
3.9809060000	87.8640800000
3.9809110000	87.9753100000
3.9817400000	87.9751100000
3.9817440000	88.0863500000
3.9825730000	88.0861500000
3.9825780000	88.1973800000
3.9834070000	88.1971900000
3.9842360000	88.1969900000
3.9842400000	88.3082200000
3.9850550000	87.9743200000
3.9858840000	87.9741300000
3.9867130000	87.9739300000
3.9875370000	87.8625000000
3.9883620000	87.7510700000
3.9883660000	87.8623000000
3.9883710000	87.9735300000
3.9891810000	87.5284000000
3.9900100000	87.5282000000
3.9908340000	87.4167700000
3.9916630000	87.4165700000
3.9924920000	87.4163800000
3.9933160000	87.3049500000
3.9941450000	87.3047500000
3.9949650000	87.0820800000
3.9957890000	86.9706500000
3.9966130000	86.8592200000
3.9974420000	86.8590200000
3.9982710000	86.8588300000
3.9990910000	86.6361600000
3.9990960000	86.7473900000
3.9999240000	86.7472000000
4.0007530000	86.7470000000
4.0015820000	86.7468000000
4.0024110000	86.7466000000
4.0032400000	86.7464100000
4.0040690000	86.7462100000
4.0048980000	86.7460100000
4.0049020000	86.8572500000
4.0057310000	86.8570500000
4.0065600000	86.8568500000
4.0073890000	86.8566500000
4.0082180000	86.8564600000
4.0090470000	86.8562600000
4.0090510000	86.9674900000
4.0098800000	86.9672900000
4.0107090000	86.9671000000
4.0115380000	86.9669000000
4.0123670000	86.9667000000
4.0131910000	86.8552700000
4.0140200000	86.8550700000
4.0148490000	86.8548700000
4.0148540000	86.9661100000
4.0156820000	86.9659100000
4.0156870000	87.0771400000
4.0165160000	87.0769500000
4.0165210000	87.1881800000
4.0173490000	87.1879800000
4.0181780000	87.1877900000
4.0190070000	87.1875900000
4.0198360000	87.1873900000
4.0206650000	87.1871900000
4.0214940000	87.1869900000
4.0223230000	87.1868000000
4.0231520000	87.1866000000
4.0231560000	87.2978300000
4.0239850000	87.2976400000
4.0239900000	87.4088700000
4.0248190000	87.4086700000
4.0248230000	87.5199100000
4.0256520000	87.5197100000
4.0256570000	87.6309400000
4.0264860000	87.6307400000
4.0264900000	87.7419800000
4.0264950000	87.8532100000
4.0273240000	87.8530100000
4.0273280000	87.9642500000
4.0273330000	88.0754800000
4.0281620000	88.0752800000
4.0281710000	88.2977500000
4.0290000000	88.2975500000
4.0290050000	88.4087900000
4.0290090000	88.5200200000
4.0298380000	88.5198200000
4.0298430000	88.6310600000
4.0306710000	88.6308600000
4.0315000000	88.6306600000
4.0323290000	88.6304600000
4.0331580000	88.6302700000
4.0339870000	88.6300700000
4.0348160000	88.6298700000
4.0348210000	88.7411000000
4.0356490000	88.7409100000
4.0364780000	88.7407100000
4.0364830000	88.8519400000
4.0373120000	88.8517500000
4.0381410000	88.8515500000
4.0381450000	88.9627800000
4.0389740000	88.9625800000
4.0398030000	88.9623900000
4.0406320000	88.9621900000
4.0414610000	88.9619900000
4.0422850000	88.8505600000
4.0431090000	88.7391300000
4.0439380000	88.7389300000
4.0439430000	88.8501600000
4.0447720000	88.8499700000
4.0447760000	88.9612000000
4.0456050000	88.9610000000
4.0456100000	89.0722400000
4.0464390000	89.0720400000
4.0464480000	89.2945100000
4.0472770000	89.2943100000
4.0472810000	89.4055400000
4.0481100000	89.4053400000
4.0481200000	89.6278100000
4.0481240000	89.7390500000
4.0489530000	89.7388500000
4.0497870000	89.8498800000
4.0506150000	89.8496900000
4.0506200000	89.9609200000
4.0514490000	89.9607200000
4.0514540000	90.0719600000
4.0514580000	90.1831900000
4.0547600000	89.8487000000
4.0547640000	89.9599300000
4.0555930000	89.9597300000
4.0555980000	90.0709700000
4.0556030000	90.1822000000
4.0564310000	90.1820000000
4.0564410000	90.4044700000
4.0564450000	90.5157100000
4.0564500000	90.6269400000
4.0572790000	90.6267400000
4.0572830000	90.7379700000
4.0572880000	90.8492100000
4.0581170000	90.8490100000
4.0581220000	90.9602400000
4.0581260000	91.0714800000
4.0589550000	91.0712800000
4.0589600000	91.1825100000
4.0597880000	91.1823200000
4.0606170000	91.1821200000
4.0614460000	91.1819200000
4.0622750000	91.1817200000
4.0631040000	91.1815300000
4.0631090000	91.2927600000
4.0639380000	91.2925600000
4.0639470000	91.5150300000
4.0639510000	91.6262600000
4.0647800000	91.6260700000
4.0647890000	91.8485300000
4.0647940000	91.9597700000
4.0656230000	91.9595700000
4.0656280000	92.0708000000
4.0664560000	92.0706000000
4.0672850000	92.0704100000
4.0681140000	92.0702100000
4.0689380000	91.9587800000
4.0689430000	92.0700100000
4.0697720000	92.0698100000
4.0706010000	92.0696200000
4.0714300000	92.0694200000
4.0714340000	92.1806500000
4.0722630000	92.1804600000
4.0722680000	92.2916900000
4.0730970000	92.2914900000
4.0731010000	92.4027200000
4.0739300000	92.4025300000
4.0747590000	92.4023300000
4.0755880000	92.4021300000
4.0764170000	92.4019300000
4.0772460000	92.4017400000
4.0780750000	92.4015400000
4.0788990000	92.2901100000
4.0789040000	92.4013400000
4.0797190000	92.0674400000
4.0797230000	92.1786800000
4.0805380000	91.8447800000
4.0813670000	91.8445800000
4.0821870000	91.6219200000
4.0821910000	91.7331500000
4.0830020000	91.2880200000
4.0838260000	91.1765900000
4.0838310000	91.2878200000
4.0846270000	90.5089900000
4.0854560000	90.5087900000
4.0862760000	90.2861300000
4.0870910000	89.9522300000
4.0879110000	89.7295600000
4.0879200000	89.9520300000
4.0879240000	90.0632600000
4.0887120000	89.0619600000
4.0895410000	89.0617700000
4.0903600000	88.8391000000
4.0903650000	88.9503300000
4.0911800000	88.6164400000
4.0919910000	88.1713000000
4.0928060000	87.8374100000
4.0928190000	88.1711100000
4.0928290000	88.3935700000
4.0928330000	88.5048100000
4.0935980000	86.9473400000
4.0944130000	86.6134400000
4.0944220000	86.8359100000
4.0944260000	86.9471400000
4.0951950000	85.5009100000
4.0952090000	85.8346100000
4.0952180000	86.0570700000
4.0952230000	86.1683100000
4.0959970000	84.8333100000
4.0960060000	85.0557700000
4.0960100000	85.1670100000
4.0968070000	84.3881800000
4.0976220000	84.0542800000
4.0976310000	84.2767400000
4.0976360000	84.3879800000
4.0984190000	83.2754400000
4.0992290000	82.8303100000
4.1000120000	81.7177800000
4.1008220000	81.2726500000
4.1008320000	81.4951100000
4.1008360000	81.6063500000
4.1008410000	81.7175800000
4.1015870000	79.7151800000
4.1016100000	80.2713500000
4.1016190000	80.4938100000
4.1016240000	80.6050500000
4.1016280000	80.7162800000
4.1024340000	80.1599200000
4.1031660000	77.8238100000
4.1039810000	77.4899100000
4.1039950000	77.8236100000
4.1040040000	78.0460800000
4.1040090000	78.1573200000
4.1047590000	76.2661500000
4.1055610000	75.5985500000
4.1055790000	76.0434800000
4.1055880000	76.2659500000
4.1055930000	76.3771800000
4.1063300000	74.1523100000
4.1063570000	74.8197100000
4.1063710000	75.1534200000
4.1063800000	75.3758800000
4.1063850000	75.4871200000
4.1071030000	72.8173100000
4.1079000000	72.0384800000
4.1079230000	72.5946500000
4.1079320000	72.8171100000
4.1079370000	72.9283500000
4.1079410000	73.0395800000
4.1086500000	70.1473100000
4.1094510000	69.4797100000
4.1094750000	70.0358800000
4.1094840000	70.2583500000
4.1094880000	70.3695800000
4.1094930000	70.4808100000
4.1102070000	67.6997800000
4.1102300000	68.2559400000
4.1102440000	68.5896400000
4.1102480000	68.7008800000
4.1102530000	68.8121100000
4.1109710000	66.1423100000
4.1109890000	66.5872400000
4.1109990000	66.8097100000
4.1110030000	66.9209400000
4.1110080000	67.0321800000
4.1117540000	65.0297700000
4.1117720000	65.4747100000
4.1117810000	65.6971800000
4.1117860000	65.8084100000
4.1117910000	65.9196400000
4.1125370000	63.9172400000
4.1133520000	63.5833400000
4.1133650000	63.9170400000
4.1133750000	64.1395100000
4.1133790000	64.2507400000
4.1141250000	62.2483400000
4.1141480000	62.8045100000
4.1141570000	63.0269800000
4.1141620000	63.1382100000
4.1141670000	63.2494400000
4.1148850000	60.5796400000
4.1149080000	61.1358100000
4.1149220000	61.4695100000
4.1149260000	61.5807400000
4.1149310000	61.6919800000
4.1156680000	59.4671100000
4.1164740000	58.9107400000
4.1164870000	59.2444400000
4.1164920000	59.3556700000
4.1164970000	59.4669100000
4.1165200000	60.0230800000
4.1165240000	60.1343100000
4.1165290000	60.2455400000
4.1172150000	56.7971000000
4.1172330000	57.2420400000
4.1172420000	57.4645100000
4.1172470000	57.5757400000
4.1172520000	57.6869700000
4.1179930000	55.5733400000
4.1180110000	56.0182700000
4.1180210000	56.2407400000
4.1180250000	56.3519700000
4.1180300000	56.4632100000
4.1187800000	54.5720400000
4.1187990000	55.0169700000
4.1188080000	55.2394400000
4.1188130000	55.3506700000
4.1188170000	55.4619100000
4.1195450000	53.0145700000
4.1195630000	53.4595000000
4.1195720000	53.6819700000
4.1195770000	53.7932000000
4.1195820000	53.9044400000
4.1203370000	52.1245000000
4.1203550000	52.5694400000
4.1203640000	52.7919000000
4.1203690000	52.9031400000
4.1211100000	50.7895000000
4.1211290000	51.2344400000
4.1211380000	51.4569000000
4.1211430000	51.5681400000
4.1211470000	51.6793700000
4.1219160000	50.2331400000
4.1219210000	50.3443700000
4.1219250000	50.4556000000
4.1226480000	47.8970300000
4.1226710000	48.4532000000
4.1226850000	48.7869000000
4.1226900000	48.8981400000
4.1226940000	49.0093700000
4.1234030000	46.1171000000
4.1234260000	46.6732700000
4.1234360000	46.8957300000
4.1234400000	47.0069700000
4.1234450000	47.1182000000
4.1241680000	44.5596300000
4.1241910000	45.1158000000
4.1242050000	45.4495000000
4.1242090000	45.5607300000
4.1242140000	45.6719700000
4.1249320000	43.0021600000
4.1249460000	43.3358600000
4.1249550000	43.5583300000
4.1249600000	43.6695600000
4.1257150000	41.8896300000
4.1257240000	42.1121000000
4.1257290000	42.2233300000
4.1264790000	40.3321600000
4.1273030000	40.2207300000
4.1273130000	40.4432000000
4.1273170000	40.5544300000
4.1280540000	38.3295600000
4.1280720000	38.7744900000
4.1280820000	38.9969600000
4.1280860000	39.1081900000
4.1288180000	36.7720900000
4.1288230000	36.8833300000
4.1296100000	35.8820300000
4.1304210000	35.4368900000
4.1304300000	35.6593600000
4.1304350000	35.7705900000
4.1304390000	35.8818300000
4.1311900000	33.9906600000
4.1311990000	34.2131300000
4.1312030000	34.3243600000
4.1312080000	34.4355900000
4.1319680000	32.7668900000
4.1319770000	32.9893600000
4.1319820000	33.1005900000
4.1327370000	31.3206600000
4.1327410000	31.4318900000
4.1327460000	31.5431200000
4.1335150000	30.0968900000
4.1343440000	30.0966900000
4.1343480000	30.2079300000
4.1350850000	27.9830600000
4.1350940000	28.2055200000
4.1350990000	28.3167600000
4.1351040000	28.4279900000
4.1358730000	26.9817600000
4.1358910000	27.4266900000
4.1359000000	27.6491600000
4.1359050000	27.7603900000
4.1366650000	26.0916900000
4.1366740000	26.3141600000
4.1366780000	26.4253900000
4.1374570000	25.2016200000
4.1374610000	25.3128600000
4.1390450000	23.5327200000
4.1390540000	23.7551900000
4.1390590000	23.8664200000
4.1390640000	23.9776600000
4.1398510000	22.9763600000
4.1398560000	23.0875900000
4.1406610000	22.5312300000
4.1406660000	22.6424600000
4.1422590000	21.0847900000
4.1430470000	20.0834900000
4.1438710000	19.9720600000
4.1446860000	19.6381600000
4.1446910000	19.7494000000
4.1446950000	19.8606300000
4.1455240000	19.8604300000
4.1462840000	18.1917300000
4.1462880000	18.3029700000
4.1462930000	18.4142000000
4.1470850000	17.5241300000
4.1478260000	15.4105000000
4.1486370000	14.9653700000
4.1494470000	14.5202300000
4.1494520000	14.6314700000
4.1502440000	13.7414000000
4.1502480000	13.8526300000
4.1510640000	13.5187400000
4.1518790000	13.1848400000
4.1518830000	13.2960700000
4.1526940000	12.8509400000
4.1526980000	12.9621700000
4.1527030000	13.0734100000
4.1543100000	11.8494400000
4.1558890000	9.9580750000
4.1567140000	9.8466440000
4.1575420000	9.8464460000
4.1575470000	9.9576800000
4.1583530000	9.4013140000
4.1599690000	8.3998170000
4.1624140000	7.3981210000
4.1714120000	4.5038740000
4.1722370000	4.3924430000
4.1730650000	4.3922460000
4.1738900000	4.2808140000
4.1747190000	4.2806170000
4.1755380000	4.0579520000
4.1788310000	3.5009940000
4.1796600000	3.5007960000
4.1804840000	3.3893650000
4.1813130000	3.3891670000
4.1821370000	3.2777360000
4.1829660000	3.2775390000
4.1837900000	3.1661080000
4.1870780000	2.4979160000
4.1879020000	2.3864840000
4.1887220000	2.1638200000
4.1895460000	2.0523880000
4.1903750000	2.0521910000
4.1912040000	2.0519930000
4.1920330000	2.0517960000
4.1928620000	2.0515980000
4.1936860000	1.9401670000
4.1945100000	1.8287360000
4.1953390000	1.8285380000
4.1961680000	1.8283410000
4.1969920000	1.7169090000
4.1978210000	1.7167120000
4.1986410000	1.4940470000
4.1994700000	1.4938500000
4.2002940000	1.3824180000
4.2011180000	1.2709870000
4.2019470000	1.2707900000
4.2027720000	1.1593580000
4.2036000000	1.1591610000
4.2044290000	1.1589630000
4.2052580000	1.1587660000
4.2060870000	1.1585680000
4.2069110000	1.0471370000
4.2077360000	0.9357058000
4.2085510000	0.6018074000
4.2093750000	0.4903762000
4.2102040000	0.4901786000
4.2110280000	0.3787475000
4.2118570000	0.3785499000
4.2118620000	0.4897835000
4.2126910000	0.4895859000
4.2126950000	0.6008195000
4.2152000000	1.0451610000
4.2160290000	1.0449640000
4.2160340000	1.1561970000
4.2168630000	1.1560000000
4.2176910000	1.1558020000
4.2185160000	1.0443710000
4.2193400000	0.9329398000
4.2201690000	0.9327422000
4.2209930000	0.8213110000
4.2218130000	0.5986462000
4.2226420000	0.5984487000
4.2234710000	0.5982511000
4.2243000000	0.5980535000
4.2243040000	0.7092871000
4.2251330000	0.7090895000
4.2251380000	0.8203232000
4.2259660000	0.8201256000
4.2267910000	0.7086944000
4.2276200000	0.7084968000
4.2284440000	0.5970656000
4.2292640000	0.3744009000
4.2300920000	0.3742033000
4.2309210000	0.3740057000
4.2317500000	0.3738081000
4.2325790000	0.3736106000
4.2334030000	0.2621794000
4.2342280000	0.1507482000
4.2342320000	0.2619818000
4.2350470000	-0.0719165800
4.2358760000	-0.0721141500
4.2367050000	-0.0723117200
4.2375340000	-0.0725093000
4.2383630000	-0.0727068700
4.2391920000	-0.0729044400
4.2400210000	-0.0731020100
4.2408500000	-0.0732995900
4.2416780000	-0.0734971600
4.2425070000	-0.0736947300
4.2433360000	-0.0738923100
4.2441650000	-0.0740898800
4.2449940000	-0.0742874500
4.2458230000	-0.0744850300
4.2466520000	-0.0746826000
4.2474810000	-0.0748801700
4.2483090000	-0.0750777400
4.2491380000	-0.0752753200
4.2499670000	-0.0754728900
4.2507960000	-0.0756704600
4.2508010000	0.0355631400
4.2516300000	0.0353655700
4.2524590000	0.0351680000
4.2532870000	0.0349704200
4.2541160000	0.0347728500
4.2549450000	0.0345752800
4.2557690000	-0.0768559000
4.2565980000	-0.0770534800
4.2574270000	-0.0772510500
4.2582560000	-0.0774486200
4.2590850000	-0.0776461900
4.2599140000	-0.0778437700
4.2607430000	-0.0780413400
4.2607470000	0.0331922700
4.2615760000	0.0329946900
4.2624050000	0.0327971200
4.2632340000	0.0325995500
4.2640630000	0.0324019700
4.2648920000	0.0322044000
4.2657210000	0.0320068300
4.2665500000	0.0318092600
4.2673780000	0.0316116800
4.2682070000	0.0314141100
4.2690320000	-0.0800170700
4.2698610000	-0.0802146400
4.2706890000	-0.0804122200
4.2715180000	-0.0806097900
4.2723470000	-0.0808073600
4.2731760000	-0.0810049400
4.2740050000	-0.0812025100
4.2748340000	-0.0814000800
4.2756630000	-0.0815976500
4.2764920000	-0.0817952300
4.2773200000	-0.0819928000
4.2781490000	-0.0821903700
4.2789780000	-0.0823879500
4.2798070000	-0.0825855200
4.2806360000	-0.0827830900
4.2814650000	-0.0829806700
4.2822940000	-0.0831782400
4.2831230000	-0.0833758100
4.2839520000	-0.0835733800
4.2847800000	-0.0837709600
4.2856090000	-0.0839685300
4.2864380000	-0.0841661000
4.2872670000	-0.0843636800
4.2880960000	-0.0845612500
4.2889250000	-0.0847588200
4.2897540000	-0.0849564000
4.2905830000	-0.0851539700
4.2914120000	-0.0853515400
4.2922400000	-0.0855491100
4.2922450000	0.0256844900
4.2930740000	0.0254869200
4.2939030000	0.0252893500
4.2947320000	0.0250917700
4.2955560000	-0.0863394100
4.2963850000	-0.0865369800
4.2972140000	-0.0867345500
4.2980430000	-0.0869321300
4.2988710000	-0.0871297000
4.2997000000	-0.0873272700
4.3005290000	-0.0875248400
4.3013580000	-0.0877224200
4.3021870000	-0.0879199900
4.3030160000	-0.0881175600
4.3038450000	-0.0883151400
4.3046740000	-0.0885127100
4.3055030000	-0.0887102800
4.3063310000	-0.0889078600
4.3071600000	-0.0891054300
4.3079890000	-0.0893030000
4.3088180000	-0.0895005700
4.3096470000	-0.0896981500
4.3104760000	-0.0898957200
4.3113050000	-0.0900932900
4.3121340000	-0.0902908700
4.3129630000	-0.0904884400
4.3137910000	-0.0906860100
4.3146200000	-0.0908835900
4.3154490000	-0.0910811600
4.3162780000	-0.0912787300
4.3171070000	-0.0914763100
4.3179360000	-0.0916738800
4.3187650000	-0.0918714500
4.3187690000	0.0193621600
4.3195980000	0.0191645800
4.3204270000	0.0189670100
4.3212560000	0.0187694400
4.3220850000	0.0185718600
4.3229140000	0.0183742900
4.3237430000	0.0181767200
4.3245710000	0.0179791400
4.3254000000	0.0177815700
4.3262290000	0.0175840000
4.3270580000	0.0173864300
4.3278870000	0.0171888500
4.3287160000	0.0169912800
4.3295400000	-0.0944399000
4.3295450000	0.0167937100
4.3303740000	0.0165961300
4.3312030000	0.0163985600
4.3320310000	0.0162009900
4.3328600000	0.0160034100
4.3336890000	0.0158058400
4.3345180000	0.0156082700
4.3353470000	0.0154107000
4.3361760000	0.0152131200
4.3370050000	0.0150155500
4.3378340000	0.0148179800
4.3386630000	0.0146204000
4.3394910000	0.0144228300
4.3403200000	0.0142252600
4.3411490000	0.0140276800
4.3419780000	0.0138301100
4.3428020000	-0.0976010700
4.3436310000	-0.0977986400
4.3444600000	-0.0979962100
4.3452890000	-0.0981937900
4.3461180000	-0.0983913600
4.3461220000	0.0128422500
4.3469510000	0.0126446700
4.3477800000	0.0124471000
4.3486090000	0.0122495300
4.3494380000	0.0120519500
4.3502670000	0.0118543800
4.3510960000	0.0116568100
4.3519250000	0.0114592300
4.3527540000	0.0112616600
4.3535820000	0.0110640900
4.3544110000	0.0108665200
4.3552400000	0.0106689400
4.3560690000	0.0104713700
4.3568980000	0.0102738000
4.3577270000	0.0100762200
4.3585560000	0.0098786510
4.3593850000	0.0096810780
4.3602140000	0.0094835050
4.3610420000	0.0092859320
4.3618710000	0.0090883590
4.3627000000	0.0088907860
4.3635290000	0.0086932130
4.3643580000	0.0084956400
4.3651870000	0.0082980670
4.3660160000	0.0081004940
4.3668450000	0.0079029210
4.3676730000	0.0077053480
4.3685020000	0.0075077740
4.3693310000	0.0073102010
4.3701600000	0.0071126280
4.3709890000	0.0069150550
4.3718180000	0.0067174820
4.3726470000	0.0065199090
4.3734760000	0.0063223360
4.3743050000	0.0061247630
4.3751330000	0.0059271900
4.3759620000	0.0057296170
4.3767910000	0.0055320440
4.3776200000	0.0053344710
4.3784490000	0.0051368980
4.3792780000	0.0049393250
4.3801070000	0.0047417520
4.3809360000	0.0045441790
4.3817650000	0.0043466060
4.3825930000	0.0041490330
4.3834220000	0.0039514600
4.3842510000	0.0037538870
4.3850800000	0.0035563140
4.3859090000	0.0033587410
4.3867380000	0.0031611680
4.3875670000	0.0029635950
4.3875670000	0.0029635950
